Wavenumber	NESR 0.53 cm-1
1019.53296	3.90331E-08
1019.65741	3.90083E-08
1019.78186	3.89745E-08
1019.90631	3.89318E-08
1020.03076	3.88804E-08
1020.15521	3.88204E-08
1020.27966	3.87520E-08
1020.40411	3.86755E-08
1020.52863	3.85910E-08
1020.65308	3.84990E-08
1020.77753	3.83996E-08
1020.90198	3.82932E-08
1021.02643	3.81802E-08
1021.15088	3.80608E-08
1021.27533	3.79356E-08
1021.39978	3.78048E-08
1021.52423	3.76688E-08
1021.64868	3.75279E-08
1021.77313	3.73826E-08
1021.89758	3.72332E-08
1022.02203	3.70799E-08
1022.14648	3.69232E-08
1022.27094	3.67634E-08
1022.39545	3.66008E-08
1022.51990	3.64356E-08
1022.64435	3.62682E-08
1022.76880	3.60989E-08
1022.89325	3.59278E-08
1023.01770	3.57551E-08
1023.14215	3.55812E-08
1023.26660	3.54062E-08
1023.39105	3.52301E-08
1023.51550	3.50534E-08
1023.63995	3.48761E-08
1023.76440	3.46984E-08
1023.88886	3.45204E-08
1024.01331	3.43422E-08
1024.13782	3.41640E-08
1024.26221	3.39858E-08
1024.38672	3.38078E-08
1024.51111	3.36300E-08
1024.63562	3.34525E-08
1024.76001	3.32754E-08
1024.88452	3.30987E-08
1025.00891	3.29226E-08
1025.13342	3.27470E-08
1025.25794	3.25720E-08
1025.38232	3.23977E-08
1025.50684	3.22240E-08
1025.63123	3.20511E-08
1025.75574	3.18790E-08
1025.88013	3.17077E-08
1026.00464	3.15373E-08
1026.12903	3.13676E-08
1026.25354	3.11988E-08
1026.37793	3.10310E-08
1026.50244	3.08640E-08
1026.62683	3.06980E-08
1026.75134	3.05329E-08
1026.87573	3.03687E-08
1027.00024	3.02056E-08
1027.12476	3.00434E-08
1027.24915	2.98822E-08
1027.37366	2.97220E-08
1027.49805	2.95628E-08
1027.62256	2.94047E-08
1027.74695	2.92476E-08
1027.87146	2.90915E-08
1027.99585	2.89364E-08
1028.12036	2.87824E-08
1028.24475	2.86294E-08
1028.36926	2.84774E-08
1028.49365	2.83265E-08
1028.61816	2.81767E-08
1028.74255	2.80279E-08
1028.86707	2.78801E-08
1028.99158	2.77334E-08
1029.11597	2.75877E-08
1029.24048	2.74431E-08
1029.36487	2.72995E-08
1029.48938	2.71570E-08
1029.61377	2.70155E-08
1029.73828	2.68751E-08
1029.86267	2.67357E-08
1029.98718	2.65974E-08
1030.11157	2.64600E-08
1030.23608	2.63237E-08
1030.36047	2.61885E-08
1030.48499	2.60542E-08
1030.60938	2.59209E-08
1030.73389	2.57887E-08
1030.85828	2.56575E-08
1030.98279	2.55273E-08
1031.10730	2.53980E-08
1031.23169	2.52698E-08
1031.35620	2.51425E-08
1031.48059	2.50163E-08
1031.60510	2.48909E-08
1031.72949	2.47666E-08
1031.85400	2.46432E-08
1031.97839	2.45208E-08
1032.10291	2.43992E-08
1032.22730	2.42786E-08
1032.35181	2.41590E-08
1032.47620	2.40403E-08
1032.60071	2.39224E-08
1032.72510	2.38055E-08
1032.84961	2.36894E-08
1032.97412	2.35743E-08
1033.09851	2.34600E-08
1033.22302	2.33465E-08
1033.34741	2.32340E-08
1033.47192	2.31222E-08
1033.59631	2.30113E-08
1033.72083	2.29013E-08
1033.84522	2.27920E-08
1033.96973	2.26835E-08
1034.09412	2.25759E-08
1034.21863	2.24690E-08
1034.34302	2.23629E-08
1034.46753	2.22575E-08
1034.59192	2.21529E-08
1034.71643	2.20491E-08
1034.84094	2.19460E-08
1034.96533	2.18436E-08
1035.08984	2.17419E-08
1035.21423	2.16410E-08
1035.33875	2.15407E-08
1035.46314	2.14411E-08
1035.58765	2.13422E-08
1035.71204	2.12439E-08
1035.83655	2.11463E-08
1035.96094	2.10494E-08
1036.08545	2.09530E-08
1036.20984	2.08573E-08
1036.33435	2.07622E-08
1036.45874	2.06677E-08
1036.58325	2.05738E-08
1036.70776	2.04805E-08
1036.83215	2.03878E-08
1036.95667	2.02956E-08
1037.08106	2.02040E-08
1037.20557	2.01130E-08
1037.32996	2.00225E-08
1037.45447	1.99325E-08
1037.57886	1.98431E-08
1037.70337	1.97541E-08
1037.82776	1.96657E-08
1037.95227	1.95778E-08
1038.07666	1.94904E-08
1038.20117	1.94034E-08
1038.32556	1.93169E-08
1038.45007	1.92309E-08
1038.57459	1.91454E-08
1038.69898	1.90603E-08
1038.82349	1.89757E-08
1038.94788	1.88915E-08
1039.07239	1.88078E-08
1039.19678	1.87245E-08
1039.32129	1.86416E-08
1039.44568	1.85592E-08
1039.57019	1.84771E-08
1039.69458	1.83955E-08
1039.81909	1.83143E-08
1039.94348	1.82335E-08
1040.06799	1.81531E-08
1040.19238	1.80731E-08
1040.31690	1.79935E-08
1040.44141	1.79142E-08
1040.56580	1.78354E-08
1040.69031	1.77569E-08
1040.81470	1.76788E-08
1040.93921	1.76011E-08
1041.06360	1.75238E-08
1041.18811	1.74468E-08
1041.31250	1.73702E-08
1041.43701	1.72940E-08
1041.56140	1.72181E-08
1041.68591	1.71426E-08
1041.81030	1.70674E-08
1041.93481	1.69926E-08
1042.05920	1.69182E-08
1042.18372	1.68441E-08
1042.30823	1.67704E-08
1042.43262	1.66970E-08
1042.55713	1.66240E-08
1042.68152	1.65513E-08
1042.80603	1.64790E-08
1042.93042	1.64070E-08
1043.05493	1.63354E-08
1043.17932	1.62641E-08
1043.30383	1.61932E-08
1043.42822	1.61226E-08
1043.55273	1.60524E-08
1043.67712	1.59825E-08
1043.80164	1.59130E-08
1043.92603	1.58438E-08
1044.05054	1.57750E-08
1044.17505	1.57065E-08
1044.29944	1.56383E-08
1044.42395	1.55705E-08
1044.54834	1.55031E-08
1044.67285	1.54360E-08
1044.79724	1.53693E-08
1044.92175	1.53029E-08
1045.04614	1.52368E-08
1045.17065	1.51711E-08
1045.29504	1.51058E-08
1045.41956	1.50408E-08
1045.54395	1.49762E-08
1045.66846	1.49119E-08
1045.79285	1.48480E-08
1045.91736	1.47844E-08
1046.04187	1.47211E-08
1046.16626	1.46583E-08
1046.29077	1.45957E-08
1046.41516	1.45336E-08
1046.53967	1.44717E-08
1046.66406	1.44103E-08
1046.78857	1.43491E-08
1046.91296	1.42884E-08
1047.03748	1.42280E-08
1047.16187	1.41679E-08
1047.28638	1.41082E-08
1047.41077	1.40488E-08
1047.53528	1.39898E-08
1047.65967	1.39311E-08
1047.78418	1.38728E-08
1047.90869	1.38148E-08
1048.03308	1.37571E-08
1048.15759	1.36998E-08
1048.28198	1.36429E-08
1048.40649	1.35862E-08
1048.53088	1.35300E-08
1048.65540	1.34741E-08
1048.77979	1.34185E-08
1048.90430	1.33632E-08
1049.02869	1.33083E-08
1049.15320	1.32537E-08
1049.27759	1.31995E-08
1049.40210	1.31456E-08
1049.52649	1.30920E-08
1049.65100	1.30387E-08
1049.77551	1.29858E-08
1049.89990	1.29332E-08
1050.02441	1.28809E-08
1050.14880	1.28289E-08
1050.27332	1.27773E-08
1050.39771	1.27259E-08
1050.52222	1.26749E-08
1050.64661	1.26242E-08
1050.77112	1.25738E-08
1050.89551	1.25238E-08
1051.02002	1.24740E-08
1051.14441	1.24245E-08
1051.26892	1.23753E-08
1051.39331	1.23265E-08
1051.51782	1.22779E-08
1051.64233	1.22296E-08
1051.76672	1.21816E-08
1051.89124	1.21339E-08
1052.01563	1.20865E-08
1052.14014	1.20393E-08
1052.26453	1.19925E-08
1052.38904	1.19459E-08
1052.51343	1.18996E-08
1052.63794	1.18536E-08
1052.76233	1.18079E-08
1052.88684	1.17624E-08
1053.01123	1.17172E-08
1053.13574	1.16723E-08
1053.26013	1.16276E-08
1053.38464	1.15832E-08
1053.50903	1.15390E-08
1053.63355	1.14951E-08
1053.75806	1.14514E-08
1053.88245	1.14080E-08
1054.00696	1.13649E-08
1054.13135	1.13220E-08
1054.25586	1.12793E-08
1054.38025	1.12369E-08
1054.50476	1.11947E-08
1054.62915	1.11528E-08
1054.75366	1.11111E-08
1054.87805	1.10696E-08
1055.00256	1.10284E-08
1055.12695	1.09874E-08
1055.25147	1.09466E-08
1055.37585	1.09061E-08
1055.50037	1.08657E-08
1055.62488	1.08256E-08
1055.74927	1.07857E-08
1055.87378	1.07460E-08
1055.99817	1.07066E-08
1056.12268	1.06674E-08
1056.24707	1.06283E-08
1056.37158	1.05895E-08
1056.49597	1.05509E-08
1056.62048	1.05125E-08
1056.74487	1.04743E-08
1056.86939	1.04363E-08
1056.99377	1.03986E-08
1057.11829	1.03610E-08
1057.24268	1.03236E-08
1057.36719	1.02865E-08
1057.49170	1.02495E-08
1057.61609	1.02127E-08
1057.74060	1.01761E-08
1057.86499	1.01397E-08
1057.98950	1.01036E-08
1058.11389	1.00676E-08
1058.23840	1.00318E-08
1058.36279	9.99616E-09
1058.48731	9.96074E-09
1058.61169	9.92551E-09
1058.73621	9.89046E-09
1058.86060	9.85562E-09
1058.98511	9.82095E-09
1059.10950	9.78648E-09
1059.23401	9.75217E-09
1059.35852	9.71805E-09
1059.48291	9.68415E-09
1059.60742	9.65039E-09
1059.73181	9.61681E-09
1059.85632	9.58344E-09
1059.98071	9.55024E-09
1060.10523	9.51723E-09
1060.22961	9.48438E-09
1060.35413	9.45170E-09
1060.47852	9.41921E-09
1060.60303	9.38689E-09
1060.72742	9.35477E-09
1060.85193	9.32279E-09
1060.97632	9.29100E-09
1061.10083	9.25938E-09
1061.22534	9.22795E-09
1061.34973	9.19670E-09
1061.47424	9.16560E-09
1061.59863	9.13466E-09
1061.72315	9.10391E-09
1061.84753	9.07332E-09
1061.97205	9.04291E-09
1062.09644	9.01266E-09
1062.22095	8.98258E-09
1062.34534	8.95266E-09
1062.46985	8.92291E-09
1062.59424	8.89332E-09
1062.71875	8.86390E-09
1062.84314	8.83463E-09
1062.96765	8.80553E-09
1063.09216	8.77659E-09
1063.21655	8.74781E-09
1063.34106	8.71920E-09
1063.46545	8.69074E-09
1063.58997	8.66243E-09
1063.71436	8.63428E-09
1063.83887	8.60629E-09
1063.96326	8.57846E-09
1064.08777	8.55076E-09
1064.21216	8.52323E-09
1064.33667	8.49585E-09
1064.46106	8.46862E-09
1064.58557	8.44155E-09
1064.70996	8.41462E-09
1064.83447	8.38783E-09
1064.95898	8.36119E-09
1065.08337	8.33470E-09
1065.20789	8.30836E-09
1065.33228	8.28217E-09
1065.45679	8.25610E-09
1065.58118	8.23019E-09
1065.70569	8.20441E-09
1065.83008	8.17877E-09
1065.95459	8.15327E-09
1066.07898	8.12791E-09
1066.20349	8.10268E-09
1066.32788	8.07760E-09
1066.45239	8.05264E-09
1066.57678	8.02783E-09
1066.70129	8.00314E-09
1066.82581	7.97859E-09
1066.95020	7.95417E-09
1067.07471	7.92988E-09
1067.19910	7.90572E-09
1067.32361	7.88167E-09
1067.44800	7.85777E-09
1067.57251	7.83397E-09
1067.69690	7.81030E-09
1067.82141	7.78676E-09
1067.94580	7.76333E-09
1068.07031	7.74003E-09
1068.19470	7.71685E-09
1068.31921	7.69379E-09
1068.44360	7.67084E-09
1068.56812	7.64802E-09
1068.69263	7.62531E-09
1068.81702	7.60272E-09
1068.94153	7.58023E-09
1069.06592	7.55786E-09
1069.19043	7.53562E-09
1069.31482	7.51347E-09
1069.43933	7.49144E-09
1069.56372	7.46951E-09
1069.68823	7.44769E-09
1069.81262	7.42600E-09
1069.93713	7.40440E-09
1070.06152	7.38292E-09
1070.18604	7.36155E-09
1070.31043	7.34027E-09
1070.43494	7.31910E-09
1070.55945	7.29805E-09
1070.68384	7.27709E-09
1070.80835	7.25624E-09
1070.93274	7.23550E-09
1071.05725	7.21487E-09
1071.18164	7.19433E-09
1071.30615	7.17389E-09
1071.43054	7.15357E-09
1071.55505	7.13334E-09
1071.67944	7.11322E-09
1071.80396	7.09318E-09
1071.92835	7.07326E-09
1072.05286	7.05344E-09
1072.17725	7.03373E-09
1072.30176	7.01411E-09
1072.42627	6.99459E-09
1072.55066	6.97517E-09
1072.67517	6.95584E-09
1072.79956	6.93664E-09
1072.92407	6.91752E-09
1073.04846	6.89850E-09
1073.17297	6.87958E-09
1073.29736	6.86077E-09
1073.42188	6.84206E-09
1073.54627	6.82344E-09
1073.67078	6.80493E-09
1073.79517	6.78651E-09
1073.91968	6.76819E-09
1074.04407	6.74998E-09
1074.16858	6.73187E-09
1074.29309	6.71386E-09
1074.41748	6.69594E-09
1074.54199	6.67813E-09
1074.66638	6.66042E-09
1074.79089	6.64280E-09
1074.91528	6.62528E-09
1075.03980	6.60787E-09
1075.16419	6.59055E-09
1075.28870	6.57334E-09
1075.41309	6.55622E-09
1075.53760	6.53921E-09
1075.66199	6.52229E-09
1075.78650	6.50547E-09
1075.91089	6.48876E-09
1076.03540	6.47214E-09
1076.15979	6.45563E-09
1076.28430	6.43922E-09
1076.40881	6.42290E-09
1076.53320	6.40669E-09
1076.65772	6.39057E-09
1076.78210	6.37455E-09
1076.90662	6.35864E-09
1077.03101	6.34282E-09
1077.15552	6.32711E-09
1077.27991	6.31149E-09
1077.40442	6.29597E-09
1077.52881	6.28055E-09
1077.65332	6.26522E-09
1077.77771	6.24999E-09
1077.90222	6.23487E-09
1078.02661	6.21984E-09
1078.15112	6.20490E-09
1078.27564	6.19007E-09
1078.40002	6.17533E-09
1078.52454	6.16069E-09
1078.64893	6.14615E-09
1078.77344	6.13170E-09
1078.89783	6.11735E-09
1079.02234	6.10309E-09
1079.14673	6.08892E-09
1079.27124	6.07486E-09
1079.39563	6.06088E-09
1079.52014	6.04699E-09
1079.64453	6.03321E-09
1079.76904	6.01951E-09
1079.89343	6.00590E-09
1080.01794	5.99238E-09
1080.14246	5.97896E-09
1080.26685	5.96562E-09
1080.39136	5.95237E-09
1080.51575	5.93922E-09
1080.64026	5.92615E-09
1080.76465	5.91317E-09
1080.88916	5.90027E-09
1081.01355	5.88747E-09
1081.13806	5.87474E-09
1081.26245	5.86210E-09
1081.38696	5.84954E-09
1081.51135	5.83707E-09
1081.63586	5.82468E-09
1081.76025	5.81237E-09
1081.88477	5.80014E-09
1082.00928	5.78799E-09
1082.13367	5.77592E-09
1082.25818	5.76393E-09
1082.38257	5.75201E-09
1082.50708	5.74017E-09
1082.63147	5.72841E-09
1082.75598	5.71673E-09
1082.88037	5.70512E-09
1083.00488	5.69357E-09
1083.12927	5.68211E-09
1083.25378	5.67072E-09
1083.37817	5.65940E-09
1083.50269	5.64814E-09
1083.62708	5.63696E-09
1083.75159	5.62584E-09
1083.87610	5.61480E-09
1084.00049	5.60382E-09
1084.12500	5.59291E-09
1084.24939	5.58207E-09
1084.37390	5.57129E-09
1084.49829	5.56057E-09
1084.62280	5.54991E-09
1084.74719	5.53932E-09
1084.87170	5.52880E-09
1084.99609	5.51833E-09
1085.12061	5.50792E-09
1085.24500	5.49758E-09
1085.36951	5.48728E-09
1085.49390	5.47705E-09
1085.61841	5.46689E-09
1085.74292	5.45677E-09
1085.86731	5.44672E-09
1085.99182	5.43671E-09
1086.11621	5.42678E-09
1086.24072	5.41688E-09
1086.36511	5.40705E-09
1086.48962	5.39728E-09
1086.61401	5.38755E-09
1086.73853	5.37788E-09
1086.86292	5.36826E-09
1086.98743	5.35871E-09
1087.11182	5.34919E-09
1087.23633	5.33973E-09
1087.36072	5.33033E-09
1087.48523	5.32098E-09
1087.60974	5.31167E-09
1087.73413	5.30242E-09
1087.85864	5.29322E-09
1087.98303	5.28406E-09
1088.10754	5.27496E-09
1088.23193	5.26592E-09
1088.35645	5.25692E-09
1088.48084	5.24796E-09
1088.60535	5.23906E-09
1088.72974	5.23022E-09
1088.85425	5.22142E-09
1088.97864	5.21267E-09
1089.10315	5.20396E-09
1089.22754	5.19532E-09
1089.35205	5.18671E-09
1089.47656	5.17816E-09
1089.60095	5.16966E-09
1089.72546	5.16121E-09
1089.84985	5.15280E-09
1089.97437	5.14445E-09
1090.09876	5.13615E-09
1090.22327	5.12789E-09
1090.34766	5.11969E-09
1090.47217	5.11153E-09
1090.59656	5.10343E-09
1090.72107	5.09537E-09
1090.84546	5.08737E-09
1090.96997	5.07941E-09
1091.09436	5.07151E-09
1091.21887	5.06365E-09
1091.34338	5.05585E-09
1091.46777	5.04810E-09
1091.59229	5.04040E-09
1091.71668	5.03275E-09
1091.84119	5.02515E-09
1091.96558	5.01761E-09
1092.09009	5.01012E-09
1092.21448	5.00267E-09
1092.33899	4.99528E-09
1092.46338	4.98794E-09
1092.58789	4.98066E-09
1092.71228	4.97343E-09
1092.83679	4.96624E-09
1092.96118	4.95911E-09
1093.08569	4.95204E-09
1093.21021	4.94501E-09
1093.33460	4.93804E-09
1093.45911	4.93112E-09
1093.58350	4.92425E-09
1093.70801	4.91744E-09
1093.83240	4.91069E-09
1093.95691	4.90398E-09
1094.08130	4.89733E-09
1094.20581	4.89073E-09
1094.33020	4.88418E-09
1094.45471	4.87768E-09
1094.57910	4.87124E-09
1094.70361	4.86485E-09
1094.82800	4.85852E-09
1094.95252	4.85223E-09
1095.07703	4.84600E-09
1095.20142	4.83982E-09
1095.32593	4.83370E-09
1095.45032	4.82762E-09
1095.57483	4.82160E-09
1095.69922	4.81563E-09
1095.82373	4.80971E-09
1095.94812	4.80384E-09
1096.07263	4.79803E-09
1096.19702	4.79226E-09
1096.32153	4.78655E-09
1096.44592	4.78088E-09
1096.57044	4.77527E-09
1096.69482	4.76971E-09
1096.81934	4.76419E-09
1096.94385	4.75872E-09
1097.06824	4.75331E-09
1097.19275	4.74794E-09
1097.31714	4.74262E-09
1097.44165	4.73735E-09
1097.56604	4.73212E-09
1097.69055	4.72694E-09
1097.81494	4.72181E-09
1097.93945	4.71671E-09
1098.06384	4.71167E-09
1098.18835	4.70667E-09
1098.31274	4.70172E-09
1098.43726	4.69681E-09
1098.56165	4.69194E-09
1098.68616	4.68712E-09
1098.81055	4.68234E-09
1098.93506	4.67760E-09
1099.05957	4.67290E-09
1099.18396	4.66824E-09
1099.30847	4.66363E-09
1099.43286	4.65905E-09
1099.55737	4.65451E-09
1099.68176	4.65001E-09
1099.80627	4.64554E-09
1099.93066	4.64112E-09
1100.05518	4.63673E-09
1100.17957	4.63238E-09
1100.30408	4.62806E-09
1100.42847	4.62378E-09
1100.55298	4.61953E-09
1100.67737	4.61531E-09
1100.80188	4.61113E-09
1100.92639	4.60699E-09
1101.05078	4.60288E-09
1101.17529	4.59879E-09
1101.29968	4.59474E-09
1101.42419	4.59072E-09
1101.54858	4.58673E-09
1101.67310	4.58277E-09
1101.79749	4.57883E-09
1101.92200	4.57493E-09
1102.04639	4.57106E-09
1102.17090	4.56721E-09
1102.29529	4.56339E-09
1102.41980	4.55960E-09
1102.54419	4.55583E-09
1102.66870	4.55209E-09
1102.79321	4.54837E-09
1102.91760	4.54468E-09
1103.04211	4.54102E-09
1103.16650	4.53738E-09
1103.29102	4.53376E-09
1103.41541	4.53017E-09
1103.53992	4.52659E-09
1103.66431	4.52305E-09
1103.78882	4.51952E-09
1103.91321	4.51602E-09
1104.03772	4.51254E-09
1104.16211	4.50907E-09
1104.28662	4.50564E-09
1104.41101	4.50222E-09
1104.53552	4.49882E-09
1104.66003	4.49545E-09
1104.78442	4.49210E-09
1104.90894	4.48876E-09
1105.03333	4.48545E-09
1105.15784	4.48216E-09
1105.28223	4.47888E-09
1105.40674	4.47563E-09
1105.53113	4.47239E-09
1105.65564	4.46918E-09
1105.78003	4.46599E-09
1105.90454	4.46281E-09
1106.02893	4.45966E-09
1106.15344	4.45652E-09
1106.27783	4.45341E-09
1106.40234	4.45031E-09
1106.52686	4.44723E-09
1106.65125	4.44417E-09
1106.77576	4.44113E-09
1106.90015	4.43811E-09
1107.02466	4.43511E-09
1107.14905	4.43213E-09
1107.27356	4.42916E-09
1107.39795	4.42622E-09
1107.52246	4.42329E-09
1107.64685	4.42039E-09
1107.77136	4.41751E-09
1107.89575	4.41464E-09
1108.02026	4.41179E-09
1108.14465	4.40897E-09
1108.26917	4.40616E-09
1108.39368	4.40337E-09
1108.51807	4.40060E-09
1108.64258	4.39786E-09
1108.76697	4.39513E-09
1108.89148	4.39242E-09
1109.01587	4.38973E-09
1109.14038	4.38705E-09
1109.26477	4.38440E-09
1109.38928	4.38177E-09
1109.51367	4.37916E-09
1109.63818	4.37657E-09
1109.76257	4.37400E-09
1109.88709	4.37145E-09
1110.01148	4.36892E-09
1110.13599	4.36641E-09
1110.26050	4.36391E-09
1110.38489	4.36144E-09
1110.50940	4.35899E-09
1110.63379	4.35656E-09
1110.75830	4.35415E-09
1110.88269	4.35175E-09
1111.00720	4.34938E-09
1111.13159	4.34703E-09
1111.25610	4.34469E-09
1111.38049	4.34238E-09
1111.50501	4.34008E-09
1111.62940	4.33780E-09
1111.75391	4.33555E-09
1111.87830	4.33331E-09
1112.00281	4.33109E-09
1112.12732	4.32889E-09
1112.25171	4.32670E-09
1112.37622	4.32454E-09
1112.50061	4.32239E-09
1112.62512	4.32026E-09
1112.74951	4.31814E-09
1112.87402	4.31605E-09
1112.99841	4.31397E-09
1113.12293	4.31191E-09
1113.24731	4.30986E-09
1113.37183	4.30784E-09
1113.49622	4.30582E-09
1113.62073	4.30382E-09
1113.74512	4.30184E-09
1113.86963	4.29988E-09
1113.99414	4.29792E-09
1114.11853	4.29599E-09
1114.24304	4.29406E-09
1114.36743	4.29215E-09
1114.49194	4.29025E-09
1114.61633	4.28837E-09
1114.74085	4.28650E-09
1114.86523	4.28464E-09
1114.98975	4.28279E-09
1115.11414	4.28096E-09
1115.23865	4.27914E-09
1115.36304	4.27732E-09
1115.48755	4.27552E-09
1115.61194	4.27373E-09
1115.73645	4.27195E-09
1115.86096	4.27017E-09
1115.98535	4.26841E-09
1116.10986	4.26666E-09
1116.23425	4.26491E-09
1116.35877	4.26317E-09
1116.48315	4.26145E-09
1116.60767	4.25973E-09
1116.73206	4.25801E-09
1116.85657	4.25631E-09
1116.98096	4.25461E-09
1117.10547	4.25291E-09
1117.22986	4.25122E-09
1117.35437	4.24954E-09
1117.47876	4.24786E-09
1117.60327	4.24618E-09
1117.72778	4.24451E-09
1117.85217	4.24285E-09
1117.97669	4.24119E-09
1118.10107	4.23953E-09
1118.22559	4.23789E-09
1118.34998	4.23624E-09
1118.47449	4.23460E-09
1118.59888	4.23295E-09
1118.72339	4.23131E-09
1118.84778	4.22968E-09
1118.97229	4.22804E-09
1119.09668	4.22642E-09
1119.22119	4.22479E-09
1119.34558	4.22316E-09
1119.47009	4.22154E-09
1119.59448	4.21992E-09
1119.71899	4.21829E-09
1119.84351	4.21668E-09
1119.96790	4.21506E-09
1120.09241	4.21345E-09
1120.21680	4.21183E-09
1120.34131	4.21022E-09
1120.46570	4.20861E-09
1120.59021	4.20701E-09
1120.71460	4.20540E-09
1120.83911	4.20380E-09
1120.96350	4.20220E-09
1121.08801	4.20059E-09
1121.21240	4.19900E-09
1121.33691	4.19740E-09
1121.46130	4.19580E-09
1121.58582	4.19421E-09
1121.71033	4.19262E-09
1121.83472	4.19104E-09
1121.95923	4.18946E-09
1122.08362	4.18787E-09
1122.20813	4.18630E-09
1122.33252	4.18472E-09
1122.45703	4.18315E-09
1122.58142	4.18158E-09
1122.70593	4.18002E-09
1122.83032	4.17845E-09
1122.95483	4.17690E-09
1123.07922	4.17534E-09
1123.20374	4.17380E-09
1123.32813	4.17225E-09
1123.45264	4.17071E-09
1123.57715	4.16918E-09
1123.70154	4.16765E-09
1123.82605	4.16613E-09
1123.95044	4.16461E-09
1124.07495	4.16310E-09
1124.19934	4.16159E-09
1124.32385	4.16009E-09
1124.44824	4.15860E-09
1124.57275	4.15712E-09
1124.69714	4.15563E-09
1124.82166	4.15416E-09
1124.94605	4.15270E-09
1125.07056	4.15124E-09
1125.19495	4.14979E-09
1125.31946	4.14834E-09
1125.44397	4.14691E-09
1125.56836	4.14548E-09
1125.69287	4.14406E-09
1125.81726	4.14265E-09
1125.94177	4.14125E-09
1126.06616	4.13985E-09
1126.19067	4.13847E-09
1126.31506	4.13709E-09
1126.43958	4.13572E-09
1126.56397	4.13437E-09
1126.68848	4.13302E-09
1126.81287	4.13167E-09
1126.93738	4.13034E-09
1127.06177	4.12902E-09
1127.18628	4.12770E-09
1127.31079	4.12640E-09
1127.43518	4.12510E-09
1127.55969	4.12381E-09
1127.68408	4.12253E-09
1127.80859	4.12126E-09
1127.93298	4.12000E-09
1128.05750	4.11875E-09
1128.18189	4.11751E-09
1128.30640	4.11627E-09
1128.43079	4.11504E-09
1128.55530	4.11382E-09
1128.67969	4.11261E-09
1128.80420	4.11141E-09
1128.92859	4.11022E-09
1129.05310	4.10903E-09
1129.17761	4.10785E-09
1129.30200	4.10667E-09
1129.42651	4.10551E-09
1129.55090	4.10435E-09
1129.67542	4.10320E-09
1129.79981	4.10205E-09
1129.92432	4.10091E-09
1130.04871	4.09978E-09
1130.17322	4.09865E-09
1130.29761	4.09753E-09
1130.42212	4.09641E-09
1130.54651	4.09530E-09
1130.67102	4.09419E-09
1130.79541	4.09308E-09
1130.91992	4.09198E-09
1131.04443	4.09088E-09
1131.16882	4.08979E-09
1131.29334	4.08870E-09
1131.41773	4.08761E-09
1131.54224	4.08653E-09
1131.66663	4.08545E-09
1131.79114	4.08437E-09
1131.91553	4.08329E-09
1132.04004	4.08222E-09
1132.16443	4.08114E-09
1132.28894	4.08007E-09
1132.41333	4.07900E-09
1132.53784	4.07792E-09
1132.66223	4.07685E-09
1132.78674	4.07578E-09
1132.91126	4.07471E-09
1133.03565	4.07363E-09
1133.16016	4.07256E-09
1133.28455	4.07149E-09
1133.40906	4.07041E-09
1133.53345	4.06933E-09
1133.65796	4.06825E-09
1133.78235	4.06716E-09
1133.90686	4.06608E-09
1134.03125	4.06499E-09
1134.15576	4.06391E-09
1134.28015	4.06282E-09
1134.40466	4.06172E-09
1134.52905	4.06063E-09
1134.65356	4.05953E-09
1134.77808	4.05843E-09
1134.90247	4.05733E-09
1135.02698	4.05623E-09
1135.15137	4.05512E-09
1135.27588	4.05401E-09
1135.40027	4.05289E-09
1135.52478	4.05178E-09
1135.64917	4.05066E-09
1135.77368	4.04953E-09
1135.89807	4.04841E-09
1136.02258	4.04728E-09
1136.14697	4.04616E-09
1136.27148	4.04502E-09
1136.39587	4.04389E-09
1136.52039	4.04275E-09
1136.64490	4.04161E-09
1136.76929	4.04047E-09
1136.89380	4.03932E-09
1137.01819	4.03818E-09
1137.14270	4.03703E-09
1137.26709	4.03589E-09
1137.39160	4.03474E-09
1137.51599	4.03359E-09
1137.64050	4.03244E-09
1137.76489	4.03129E-09
1137.88940	4.03014E-09
1138.01379	4.02900E-09
1138.13831	4.02785E-09
1138.26270	4.02670E-09
1138.38721	4.02556E-09
1138.51172	4.02441E-09
1138.63611	4.02327E-09
1138.76062	4.02213E-09
1138.88501	4.02099E-09
1139.00952	4.01985E-09
1139.13391	4.01872E-09
1139.25842	4.01759E-09
1139.38281	4.01646E-09
1139.50732	4.01534E-09
1139.63171	4.01423E-09
1139.75623	4.01311E-09
1139.88062	4.01200E-09
1140.00513	4.01090E-09
1140.12952	4.00980E-09
1140.25403	4.00870E-09
1140.37854	4.00762E-09
1140.50293	4.00654E-09
1140.62744	4.00546E-09
1140.75183	4.00440E-09
1140.87634	4.00334E-09
1141.00073	4.00228E-09
1141.12524	4.00124E-09
1141.24963	4.00021E-09
1141.37415	3.99918E-09
1141.49854	3.99816E-09
1141.62305	3.99715E-09
1141.74744	3.99615E-09
1141.87195	3.99516E-09
1141.99634	3.99417E-09
1142.12085	3.99320E-09
1142.24524	3.99223E-09
1142.36975	3.99128E-09
1142.49426	3.99034E-09
1142.61865	3.98940E-09
1142.74316	3.98848E-09
1142.86755	3.98757E-09
1142.99207	3.98666E-09
1143.11646	3.98577E-09
1143.24097	3.98488E-09
1143.36536	3.98401E-09
1143.48987	3.98315E-09
1143.61426	3.98230E-09
1143.73877	3.98145E-09
1143.86316	3.98062E-09
1143.98767	3.97980E-09
1144.11206	3.97900E-09
1144.23657	3.97820E-09
1144.36108	3.97741E-09
1144.48547	3.97663E-09
1144.60999	3.97586E-09
1144.73438	3.97509E-09
1144.85889	3.97434E-09
1144.98328	3.97360E-09
1145.10779	3.97287E-09
1145.23218	3.97215E-09
1145.35669	3.97144E-09
1145.48108	3.97073E-09
1145.60559	3.97004E-09
1145.72998	3.96935E-09
1145.85449	3.96867E-09
1145.97888	3.96800E-09
1146.10339	3.96734E-09
1146.22791	3.96668E-09
1146.35230	3.96603E-09
1146.47681	3.96539E-09
1146.60120	3.96476E-09
1146.72571	3.96413E-09
1146.85010	3.96351E-09
1146.97461	3.96289E-09
1147.09900	3.96228E-09
1147.22351	3.96167E-09
1147.34790	3.96107E-09
1147.47241	3.96047E-09
1147.59680	3.95988E-09
1147.72131	3.95929E-09
1147.84570	3.95871E-09
1147.97022	3.95813E-09
1148.09473	3.95755E-09
1148.21912	3.95698E-09
1148.34363	3.95641E-09
1148.46802	3.95584E-09
1148.59253	3.95527E-09
1148.71692	3.95470E-09
1148.84143	3.95414E-09
1148.96582	3.95358E-09
1149.09033	3.95302E-09
1149.21472	3.95246E-09
1149.33923	3.95191E-09
1149.46362	3.95135E-09
1149.58814	3.95080E-09
1149.71252	3.95024E-09
1149.83704	3.94969E-09
1149.96155	3.94913E-09
1150.08594	3.94858E-09
1150.21045	3.94802E-09
1150.33484	3.94747E-09
1150.45935	3.94691E-09
1150.58374	3.94636E-09
1150.70825	3.94580E-09
1150.83264	3.94524E-09
1150.95715	3.94469E-09
1151.08154	3.94413E-09
1151.20606	3.94357E-09
1151.33044	3.94302E-09
1151.45496	3.94246E-09
1151.57935	3.94190E-09
1151.70386	3.94134E-09
1151.82837	3.94077E-09
1151.95276	3.94021E-09
1152.07727	3.93965E-09
1152.20166	3.93909E-09
1152.32617	3.93853E-09
1152.45056	3.93797E-09
1152.57507	3.93741E-09
1152.69946	3.93685E-09
1152.82398	3.93629E-09
1152.94836	3.93573E-09
1153.07288	3.93517E-09
1153.19727	3.93461E-09
1153.32178	3.93406E-09
1153.44617	3.93350E-09
1153.57068	3.93295E-09
1153.69519	3.93240E-09
1153.81958	3.93186E-09
1153.94409	3.93131E-09
1154.06848	3.93077E-09
1154.19299	3.93023E-09
1154.31738	3.92970E-09
1154.44190	3.92917E-09
1154.56628	3.92864E-09
1154.69080	3.92812E-09
1154.81519	3.92760E-09
1154.93970	3.92709E-09
1155.06409	3.92658E-09
1155.18860	3.92608E-09
1155.31299	3.92558E-09
1155.43750	3.92510E-09
1155.56201	3.92461E-09
1155.68640	3.92414E-09
1155.81091	3.92366E-09
1155.93530	3.92320E-09
1156.05981	3.92275E-09
1156.18420	3.92230E-09
1156.30872	3.92187E-09
1156.43311	3.92144E-09
1156.55762	3.92101E-09
1156.68201	3.92060E-09
1156.80652	3.92020E-09
1156.93091	3.91981E-09
1157.05542	3.91942E-09
1157.17981	3.91905E-09
1157.30432	3.91868E-09
1157.42883	3.91833E-09
1157.55322	3.91798E-09
1157.67773	3.91765E-09
1157.80212	3.91732E-09
1157.92664	3.91700E-09
1158.05103	3.91670E-09
1158.17554	3.91641E-09
1158.29993	3.91612E-09
1158.42444	3.91585E-09
1158.54883	3.91559E-09
1158.67334	3.91533E-09
1158.79773	3.91509E-09
1158.92224	3.91486E-09
1159.04663	3.91464E-09
1159.17114	3.91443E-09
1159.29565	3.91423E-09
1159.42004	3.91403E-09
1159.54456	3.91385E-09
1159.66895	3.91368E-09
1159.79346	3.91351E-09
1159.91785	3.91336E-09
1160.04236	3.91322E-09
1160.16675	3.91308E-09
1160.29126	3.91295E-09
1160.41565	3.91283E-09
1160.54016	3.91272E-09
1160.66455	3.91262E-09
1160.78906	3.91252E-09
1160.91345	3.91244E-09
1161.03796	3.91235E-09
1161.16248	3.91228E-09
1161.28687	3.91221E-09
1161.41138	3.91214E-09
1161.53577	3.91208E-09
1161.66028	3.91202E-09
1161.78467	3.91197E-09
1161.90918	3.91192E-09
1162.03357	3.91187E-09
1162.15808	3.91183E-09
1162.28247	3.91179E-09
1162.40698	3.91175E-09
1162.53137	3.91171E-09
1162.65588	3.91168E-09
1162.78027	3.91164E-09
1162.90479	3.91160E-09
1163.02930	3.91157E-09
1163.15369	3.91153E-09
1163.27820	3.91149E-09
1163.40259	3.91144E-09
1163.52710	3.91139E-09
1163.65149	3.91134E-09
1163.77600	3.91129E-09
1163.90039	3.91123E-09
1164.02490	3.91117E-09
1164.14929	3.91110E-09
1164.27380	3.91103E-09
1164.39819	3.91095E-09
1164.52271	3.91086E-09
1164.64710	3.91077E-09
1164.77161	3.91066E-09
1164.89600	3.91056E-09
1165.02051	3.91044E-09
1165.14502	3.91031E-09
1165.26941	3.91018E-09
1165.39392	3.91003E-09
1165.51831	3.90988E-09
1165.64282	3.90972E-09
1165.76721	3.90954E-09
1165.89172	3.90936E-09
1166.01611	3.90916E-09
1166.14063	3.90896E-09
1166.26502	3.90874E-09
1166.38953	3.90851E-09
1166.51392	3.90827E-09
1166.63843	3.90802E-09
1166.76282	3.90775E-09
1166.88733	3.90748E-09
1167.01184	3.90719E-09
1167.13623	3.90689E-09
1167.26074	3.90657E-09
1167.38513	3.90625E-09
1167.50964	3.90591E-09
1167.63403	3.90556E-09
1167.75855	3.90520E-09
1167.88294	3.90483E-09
1168.00745	3.90445E-09
1168.13184	3.90405E-09
1168.25635	3.90365E-09
1168.38074	3.90323E-09
1168.50525	3.90280E-09
1168.62964	3.90236E-09
1168.75415	3.90192E-09
1168.87866	3.90146E-09
1169.00305	3.90099E-09
1169.12756	3.90051E-09
1169.25195	3.90003E-09
1169.37647	3.89953E-09
1169.50085	3.89903E-09
1169.62537	3.89851E-09
1169.74976	3.89800E-09
1169.87427	3.89747E-09
1169.99866	3.89694E-09
1170.12317	3.89640E-09
1170.24756	3.89586E-09
1170.37207	3.89531E-09
1170.49646	3.89476E-09
1170.62097	3.89420E-09
1170.74548	3.89364E-09
1170.86987	3.89308E-09
1170.99439	3.89252E-09
1171.11877	3.89195E-09
1171.24329	3.89139E-09
1171.36768	3.89082E-09
1171.49219	3.89025E-09
1171.61658	3.88969E-09
1171.74109	3.88912E-09
1171.86548	3.88856E-09
1171.98999	3.88800E-09
1172.11438	3.88744E-09
1172.23889	3.88689E-09
1172.36328	3.88634E-09
1172.48779	3.88580E-09
1172.61231	3.88526E-09
1172.73669	3.88473E-09
1172.86121	3.88420E-09
1172.98560	3.88368E-09
1173.11011	3.88317E-09
1173.23450	3.88266E-09
1173.35901	3.88217E-09
1173.48340	3.88168E-09
1173.60791	3.88121E-09
1173.73230	3.88074E-09
1173.85681	3.88029E-09
1173.98120	3.87984E-09
1174.10571	3.87941E-09
1174.23010	3.87898E-09
1174.35461	3.87857E-09
1174.47913	3.87817E-09
1174.60352	3.87779E-09
1174.72803	3.87742E-09
1174.85242	3.87706E-09
1174.97693	3.87671E-09
1175.10132	3.87638E-09
1175.22583	3.87606E-09
1175.35022	3.87575E-09
1175.47473	3.87546E-09
1175.59912	3.87519E-09
1175.72363	3.87492E-09
1175.84802	3.87468E-09
1175.97253	3.87444E-09
1176.09692	3.87423E-09
1176.22144	3.87402E-09
1176.34595	3.87384E-09
1176.47034	3.87366E-09
1176.59485	3.87350E-09
1176.71924	3.87336E-09
1176.84375	3.87323E-09
1176.96814	3.87311E-09
1177.09265	3.87301E-09
1177.21704	3.87292E-09
1177.34155	3.87285E-09
1177.46594	3.87279E-09
1177.59045	3.87274E-09
1177.71484	3.87270E-09
1177.83936	3.87268E-09
1177.96375	3.87266E-09
1178.08826	3.87266E-09
1178.21277	3.87268E-09
1178.33716	3.87270E-09
1178.46167	3.87274E-09
1178.58606	3.87278E-09
1178.71057	3.87283E-09
1178.83496	3.87290E-09
1178.95947	3.87297E-09
1179.08386	3.87305E-09
1179.20837	3.87315E-09
1179.33276	3.87324E-09
1179.45728	3.87335E-09
1179.58167	3.87346E-09
1179.70618	3.87357E-09
1179.83057	3.87369E-09
1179.95508	3.87382E-09
1180.07959	3.87395E-09
1180.20398	3.87408E-09
1180.32849	3.87422E-09
1180.45288	3.87436E-09
1180.57739	3.87451E-09
1180.70178	3.87465E-09
1180.82629	3.87479E-09
1180.95068	3.87494E-09
1181.07520	3.87509E-09
1181.19959	3.87523E-09
1181.32410	3.87538E-09
1181.44849	3.87552E-09
1181.57300	3.87566E-09
1181.69739	3.87580E-09
1181.82190	3.87594E-09
1181.94641	3.87607E-09
1182.07080	3.87620E-09
1182.19531	3.87632E-09
1182.31970	3.87644E-09
1182.44421	3.87655E-09
1182.56860	3.87666E-09
1182.69312	3.87676E-09
1182.81751	3.87685E-09
1182.94202	3.87694E-09
1183.06641	3.87702E-09
1183.19092	3.87709E-09
1183.31531	3.87716E-09
1183.43982	3.87722E-09
1183.56421	3.87727E-09
1183.68872	3.87731E-09
1183.81323	3.87734E-09
1183.93762	3.87736E-09
1184.06213	3.87738E-09
1184.18652	3.87738E-09
1184.31104	3.87738E-09
1184.43543	3.87736E-09
1184.55994	3.87734E-09
1184.68433	3.87730E-09
1184.80884	3.87726E-09
1184.93323	3.87721E-09
1185.05774	3.87714E-09
1185.18213	3.87707E-09
1185.30664	3.87698E-09
1185.43103	3.87689E-09
1185.55554	3.87679E-09
1185.68005	3.87668E-09
1185.80444	3.87655E-09
1185.92896	3.87643E-09
1186.05335	3.87629E-09
1186.17786	3.87614E-09
1186.30225	3.87598E-09
1186.42676	3.87581E-09
1186.55115	3.87564E-09
1186.67566	3.87546E-09
1186.80005	3.87527E-09
1186.92456	3.87507E-09
1187.04895	3.87487E-09
1187.17346	3.87466E-09
1187.29785	3.87444E-09
1187.42236	3.87422E-09
1187.54675	3.87399E-09
1187.67127	3.87376E-09
1187.79578	3.87352E-09
1187.92017	3.87328E-09
1188.04468	3.87303E-09
1188.16907	3.87279E-09
1188.29358	3.87253E-09
1188.41797	3.87228E-09
1188.54248	3.87202E-09
1188.66687	3.87175E-09
1188.79138	3.87149E-09
1188.91577	3.87123E-09
1189.04028	3.87096E-09
1189.16467	3.87070E-09
1189.28919	3.87043E-09
1189.41357	3.87017E-09
1189.53809	3.86991E-09
1189.66260	3.86964E-09
1189.78699	3.86939E-09
1189.91150	3.86913E-09
1190.03589	3.86887E-09
1190.16040	3.86862E-09
1190.28479	3.86837E-09
1190.40930	3.86813E-09
1190.53369	3.86788E-09
1190.65820	3.86765E-09
1190.78259	3.86742E-09
1190.90710	3.86719E-09
1191.03149	3.86696E-09
1191.15601	3.86675E-09
1191.28040	3.86654E-09
1191.40491	3.86633E-09
1191.52942	3.86613E-09
1191.65381	3.86594E-09
1191.77832	3.86576E-09
1191.90271	3.86558E-09
1192.02722	3.86541E-09
1192.15161	3.86525E-09
1192.27612	3.86509E-09
1192.40051	3.86494E-09
1192.52502	3.86481E-09
1192.64941	3.86467E-09
1192.77393	3.86455E-09
1192.89832	3.86444E-09
1193.02283	3.86434E-09
1193.14722	3.86424E-09
1193.27173	3.86415E-09
1193.39624	3.86407E-09
1193.52063	3.86400E-09
1193.64514	3.86393E-09
1193.76953	3.86388E-09
1193.89404	3.86383E-09
1194.01843	3.86379E-09
1194.14294	3.86376E-09
1194.26733	3.86374E-09
1194.39185	3.86373E-09
1194.51624	3.86372E-09
1194.64075	3.86372E-09
1194.76514	3.86373E-09
1194.88965	3.86374E-09
1195.01404	3.86377E-09
1195.13855	3.86379E-09
1195.26306	3.86383E-09
1195.38745	3.86388E-09
1195.51196	3.86393E-09
1195.63635	3.86398E-09
1195.76086	3.86405E-09
1195.88525	3.86411E-09
1196.00977	3.86419E-09
1196.13416	3.86427E-09
1196.25867	3.86435E-09
1196.38306	3.86444E-09
1196.50757	3.86453E-09
1196.63196	3.86463E-09
1196.75647	3.86473E-09
1196.88086	3.86483E-09
1197.00537	3.86494E-09
1197.12988	3.86505E-09
1197.25427	3.86517E-09
1197.37878	3.86528E-09
1197.50317	3.86541E-09
1197.62769	3.86553E-09
1197.75208	3.86565E-09
1197.87659	3.86578E-09
1198.00098	3.86590E-09
1198.12549	3.86603E-09
1198.24988	3.86615E-09
1198.37439	3.86628E-09
1198.49878	3.86641E-09
1198.62329	3.86654E-09
1198.74768	3.86667E-09
1198.87219	3.86679E-09
1198.99670	3.86692E-09
1199.12109	3.86705E-09
1199.24561	3.86717E-09
1199.37000	3.86729E-09
1199.49451	3.86742E-09
1199.61890	3.86754E-09
1199.74341	3.86766E-09
1199.86780	3.86778E-09
1199.99231	3.86789E-09
1200.11670	3.86801E-09
1200.24121	3.86811E-09
1200.36560	3.86822E-09
1200.49011	3.86833E-09
1200.61450	3.86843E-09
1200.73901	3.86854E-09
1200.86353	3.86864E-09
1200.98792	3.86873E-09
1201.11243	3.86883E-09
1201.23682	3.86892E-09
1201.36133	3.86901E-09
1201.48572	3.86910E-09
1201.61023	3.86918E-09
1201.73462	3.86927E-09
1201.85913	3.86935E-09
1201.98352	3.86942E-09
1202.10803	3.86950E-09
1202.23242	3.86957E-09
1202.35693	3.86964E-09
1202.48132	3.86971E-09
1202.60584	3.86977E-09
1202.73035	3.86984E-09
1202.85474	3.86990E-09
1202.97925	3.86996E-09
1203.10364	3.87002E-09
1203.22815	3.87008E-09
1203.35254	3.87014E-09
1203.47705	3.87019E-09
1203.60144	3.87025E-09
1203.72595	3.87030E-09
1203.85034	3.87035E-09
1203.97485	3.87040E-09
1204.09924	3.87046E-09
1204.22376	3.87051E-09
1204.34815	3.87056E-09
1204.47266	3.87062E-09
1204.59717	3.87067E-09
1204.72156	3.87072E-09
1204.84607	3.87078E-09
1204.97046	3.87083E-09
1205.09497	3.87089E-09
1205.21936	3.87095E-09
1205.34387	3.87101E-09
1205.46826	3.87106E-09
1205.59277	3.87113E-09
1205.71716	3.87119E-09
1205.84168	3.87126E-09
1205.96606	3.87133E-09
1206.09058	3.87140E-09
1206.21497	3.87147E-09
1206.33948	3.87155E-09
1206.46399	3.87163E-09
1206.58838	3.87171E-09
1206.71289	3.87179E-09
1206.83728	3.87188E-09
1206.96179	3.87197E-09
1207.08618	3.87206E-09
1207.21069	3.87216E-09
1207.33508	3.87226E-09
1207.45960	3.87236E-09
1207.58398	3.87247E-09
1207.70850	3.87258E-09
1207.83289	3.87269E-09
1207.95740	3.87281E-09
1208.08179	3.87293E-09
1208.20630	3.87306E-09
1208.33069	3.87318E-09
1208.45520	3.87331E-09
1208.57971	3.87345E-09
1208.70410	3.87358E-09
1208.82861	3.87372E-09
1208.95300	3.87387E-09
1209.07752	3.87402E-09
1209.20190	3.87417E-09
1209.32642	3.87432E-09
1209.45081	3.87448E-09
1209.57532	3.87464E-09
1209.69971	3.87480E-09
1209.82422	3.87497E-09
1209.94861	3.87513E-09
1210.07312	3.87530E-09
1210.19751	3.87548E-09
1210.32202	3.87565E-09
1210.44653	3.87583E-09
1210.57092	3.87601E-09
1210.69544	3.87619E-09
1210.81982	3.87637E-09
1210.94434	3.87656E-09
1211.06873	3.87675E-09
1211.19324	3.87694E-09
1211.31763	3.87712E-09
1211.44214	3.87731E-09
1211.56653	3.87750E-09
1211.69104	3.87769E-09
1211.81543	3.87788E-09
1211.93994	3.87807E-09
1212.06433	3.87826E-09
1212.18884	3.87846E-09
1212.31335	3.87865E-09
1212.43774	3.87884E-09
1212.56226	3.87903E-09
1212.68665	3.87922E-09
1212.81116	3.87941E-09
1212.93555	3.87960E-09
1213.06006	3.87979E-09
1213.18445	3.87997E-09
1213.30896	3.88016E-09
1213.43335	3.88034E-09
1213.55786	3.88052E-09
1213.68225	3.88070E-09
1213.80676	3.88088E-09
1213.93115	3.88106E-09
1214.05566	3.88124E-09
1214.18018	3.88141E-09
1214.30457	3.88158E-09
1214.42908	3.88175E-09
1214.55347	3.88192E-09
1214.67798	3.88208E-09
1214.80237	3.88225E-09
1214.92688	3.88241E-09
1215.05127	3.88257E-09
1215.17578	3.88272E-09
1215.30017	3.88288E-09
1215.42468	3.88303E-09
1215.54907	3.88318E-09
1215.67358	3.88332E-09
1215.79797	3.88347E-09
1215.92249	3.88361E-09
1216.04700	3.88375E-09
1216.17139	3.88389E-09
1216.29590	3.88403E-09
1216.42029	3.88416E-09
1216.54480	3.88429E-09
1216.66919	3.88443E-09
1216.79370	3.88456E-09
1216.91809	3.88469E-09
1217.04260	3.88482E-09
1217.16699	3.88494E-09
1217.29150	3.88507E-09
1217.41589	3.88520E-09
1217.54041	3.88532E-09
1217.66480	3.88545E-09
1217.78931	3.88557E-09
1217.91382	3.88569E-09
1218.03821	3.88582E-09
1218.16272	3.88594E-09
1218.28711	3.88606E-09
1218.41162	3.88619E-09
1218.53601	3.88631E-09
1218.66052	3.88644E-09
1218.78491	3.88657E-09
1218.90942	3.88670E-09
1219.03381	3.88683E-09
1219.15833	3.88696E-09
1219.28272	3.88709E-09
1219.40723	3.88723E-09
1219.53162	3.88737E-09
1219.65613	3.88752E-09
1219.78064	3.88766E-09
1219.90503	3.88781E-09
1220.02954	3.88796E-09
1220.15393	3.88811E-09
1220.27844	3.88827E-09
1220.40283	3.88843E-09
1220.52734	3.88859E-09
1220.65173	3.88876E-09
1220.77625	3.88893E-09
1220.90064	3.88910E-09
1221.02515	3.88929E-09
1221.14954	3.88947E-09
1221.27405	3.88966E-09
1221.39844	3.88986E-09
1221.52295	3.89006E-09
1221.64746	3.89026E-09
1221.77185	3.89047E-09
1221.89636	3.89069E-09
1222.02075	3.89091E-09
1222.14526	3.89113E-09
1222.26965	3.89136E-09
1222.39417	3.89160E-09
1222.51856	3.89184E-09
1222.64307	3.89209E-09
1222.76746	3.89234E-09
1222.89197	3.89259E-09
1223.01636	3.89286E-09
1223.14087	3.89313E-09
1223.26526	3.89340E-09
1223.38977	3.89368E-09
1223.51428	3.89396E-09
1223.63867	3.89425E-09
1223.76318	3.89455E-09
1223.88757	3.89485E-09
1224.01209	3.89516E-09
1224.13648	3.89547E-09
1224.26099	3.89578E-09
1224.38538	3.89611E-09
1224.50989	3.89643E-09
1224.63428	3.89676E-09
1224.75879	3.89709E-09
1224.88318	3.89743E-09
1225.00769	3.89777E-09
1225.13208	3.89812E-09
1225.25659	3.89847E-09
1225.38110	3.89882E-09
1225.50549	3.89918E-09
1225.63001	3.89954E-09
1225.75440	3.89991E-09
1225.87891	3.90027E-09
1226.00330	3.90064E-09
1226.12781	3.90102E-09
1226.25220	3.90139E-09
1226.37671	3.90177E-09
1226.50110	3.90215E-09
1226.62561	3.90253E-09
1226.75000	3.90291E-09
1226.87451	3.90330E-09
1226.99890	3.90368E-09
1227.12341	3.90407E-09
1227.24793	3.90446E-09
1227.37231	3.90484E-09
1227.49683	3.90523E-09
1227.62122	3.90562E-09
1227.74573	3.90601E-09
1227.87012	3.90639E-09
1227.99463	3.90679E-09
1228.11902	3.90717E-09
1228.24353	3.90756E-09
1228.36792	3.90794E-09
1228.49243	3.90832E-09
1228.61682	3.90871E-09
1228.74133	3.90909E-09
1228.86572	3.90947E-09
1228.99023	3.90985E-09
1229.11475	3.91022E-09
1229.23914	3.91060E-09
1229.36365	3.91097E-09
1229.48804	3.91134E-09
1229.61255	3.91171E-09
1229.73694	3.91208E-09
1229.86145	3.91245E-09
1229.98584	3.91281E-09
1230.11035	3.91317E-09
1230.23474	3.91353E-09
1230.35925	3.91389E-09
1230.48364	3.91424E-09
1230.60815	3.91459E-09
1230.73254	3.91494E-09
1230.85706	3.91529E-09
1230.98145	3.91563E-09
1231.10596	3.91597E-09
1231.23047	3.91631E-09
1231.35486	3.91665E-09
1231.47937	3.91698E-09
1231.60376	3.91731E-09
1231.72827	3.91764E-09
1231.85266	3.91797E-09
1231.97717	3.91829E-09
1232.10156	3.91862E-09
1232.22607	3.91894E-09
1232.35046	3.91926E-09
1232.47498	3.91958E-09
1232.59937	3.91989E-09
1232.72388	3.92021E-09
1232.84827	3.92053E-09
1232.97278	3.92084E-09
1233.09729	3.92116E-09
1233.22168	3.92147E-09
1233.34619	3.92179E-09
1233.47058	3.92210E-09
1233.59509	3.92241E-09
1233.71948	3.92273E-09
1233.84399	3.92304E-09
1233.96838	3.92336E-09
1234.09290	3.92368E-09
1234.21729	3.92400E-09
1234.34180	3.92432E-09
1234.46619	3.92464E-09
1234.59070	3.92496E-09
1234.71509	3.92529E-09
1234.83960	3.92561E-09
1234.96411	3.92594E-09
1235.08850	3.92627E-09
1235.21301	3.92661E-09
1235.33740	3.92694E-09
1235.46191	3.92728E-09
1235.58630	3.92762E-09
1235.71082	3.92797E-09
1235.83521	3.92832E-09
1235.95972	3.92867E-09
1236.08411	3.92903E-09
1236.20862	3.92939E-09
1236.33301	3.92976E-09
1236.45752	3.93013E-09
1236.58191	3.93050E-09
1236.70642	3.93088E-09
1236.83093	3.93127E-09
1236.95532	3.93166E-09
1237.07983	3.93205E-09
1237.20422	3.93245E-09
1237.32874	3.93285E-09
1237.45313	3.93326E-09
1237.57764	3.93367E-09
1237.70203	3.93409E-09
1237.82654	3.93452E-09
1237.95093	3.93495E-09
1238.07544	3.93538E-09
1238.19983	3.93582E-09
1238.32434	3.93627E-09
1238.44873	3.93672E-09
1238.57324	3.93717E-09
1238.69775	3.93763E-09
1238.82214	3.93810E-09
1238.94666	3.93857E-09
1239.07105	3.93905E-09
1239.19556	3.93953E-09
1239.31995	3.94002E-09
1239.44446	3.94051E-09
1239.56885	3.94100E-09
1239.69336	3.94150E-09
1239.81775	3.94200E-09
1239.94226	3.94251E-09
1240.06665	3.94302E-09
1240.19116	3.94354E-09
1240.31555	3.94406E-09
1240.44006	3.94459E-09
1240.56458	3.94511E-09
1240.68897	3.94564E-09
1240.81348	3.94618E-09
1240.93787	3.94671E-09
1241.06238	3.94725E-09
1241.18677	3.94780E-09
1241.31128	3.94834E-09
1241.43567	3.94889E-09
1241.56018	3.94944E-09
1241.68457	3.94998E-09
1241.80908	3.95054E-09
1241.93347	3.95109E-09
1242.05798	3.95164E-09
1242.18237	3.95220E-09
1242.30689	3.95275E-09
1242.43140	3.95331E-09
1242.55579	3.95386E-09
1242.68030	3.95441E-09
1242.80469	3.95497E-09
1242.92920	3.95552E-09
1243.05359	3.95607E-09
1243.17810	3.95663E-09
1243.30249	3.95718E-09
1243.42700	3.95773E-09
1243.55139	3.95828E-09
1243.67590	3.95883E-09
1243.80029	3.95937E-09
1243.92481	3.95992E-09
1244.04919	3.96046E-09
1244.17371	3.96100E-09
1244.29822	3.96154E-09
1244.42261	3.96208E-09
1244.54712	3.96261E-09
1244.67151	3.96314E-09
1244.79602	3.96367E-09
1244.92041	3.96420E-09
1245.04492	3.96472E-09
1245.16931	3.96524E-09
1245.29382	3.96576E-09
1245.41821	3.96627E-09
1245.54273	3.96678E-09
1245.66711	3.96729E-09
1245.79163	3.96780E-09
1245.91602	3.96830E-09
1246.04053	3.96880E-09
1246.16504	3.96930E-09
1246.28943	3.96980E-09
1246.41394	3.97029E-09
1246.53833	3.97078E-09
1246.66284	3.97127E-09
1246.78723	3.97175E-09
1246.91174	3.97224E-09
1247.03613	3.97272E-09
1247.16065	3.97319E-09
1247.28503	3.97367E-09
1247.40955	3.97414E-09
1247.53394	3.97462E-09
1247.65845	3.97509E-09
1247.78284	3.97556E-09
1247.90735	3.97603E-09
1248.03186	3.97649E-09
1248.15625	3.97696E-09
1248.28076	3.97743E-09
1248.40515	3.97789E-09
1248.52966	3.97835E-09
1248.65405	3.97882E-09
1248.77856	3.97928E-09
1248.90295	3.97975E-09
1249.02747	3.98021E-09
1249.15186	3.98068E-09
1249.27637	3.98115E-09
1249.40076	3.98161E-09
1249.52527	3.98208E-09
1249.64966	3.98255E-09
1249.77417	3.98303E-09
1249.89868	3.98350E-09
1250.02307	3.98398E-09
1250.14758	3.98446E-09
1250.27197	3.98494E-09
1250.39648	3.98542E-09
1250.52087	3.98591E-09
1250.64539	3.98640E-09
1250.76978	3.98690E-09
1250.89429	3.98740E-09
1251.01868	3.98790E-09
1251.14319	3.98841E-09
1251.26758	3.98892E-09
1251.39209	3.98943E-09
1251.51648	3.98995E-09
1251.64099	3.99048E-09
1251.76550	3.99101E-09
1251.88989	3.99155E-09
1252.01440	3.99209E-09
1252.13879	3.99263E-09
1252.26331	3.99319E-09
1252.38770	3.99374E-09
1252.51221	3.99430E-09
1252.63660	3.99487E-09
1252.76111	3.99545E-09
1252.88550	3.99603E-09
1253.01001	3.99661E-09
1253.13440	3.99721E-09
1253.25891	3.99780E-09
1253.38330	3.99840E-09
1253.50781	3.99901E-09
1253.63220	3.99962E-09
1253.75671	4.00024E-09
1253.88123	4.00086E-09
1254.00562	4.00149E-09
1254.13013	4.00212E-09
1254.25452	4.00276E-09
1254.37903	4.00340E-09
1254.50342	4.00405E-09
1254.62793	4.00470E-09
1254.75232	4.00535E-09
1254.87683	4.00602E-09
1255.00122	4.00668E-09
1255.12573	4.00735E-09
1255.25012	4.00802E-09
1255.37463	4.00870E-09
1255.49902	4.00937E-09
1255.62354	4.01006E-09
1255.74805	4.01074E-09
1255.87244	4.01143E-09
1255.99695	4.01212E-09
1256.12134	4.01281E-09
1256.24585	4.01350E-09
1256.37024	4.01419E-09
1256.49475	4.01489E-09
1256.61914	4.01558E-09
1256.74365	4.01627E-09
1256.86804	4.01697E-09
1256.99255	4.01766E-09
1257.11694	4.01836E-09
1257.24146	4.01906E-09
1257.36585	4.01975E-09
1257.49036	4.02044E-09
1257.61487	4.02113E-09
1257.73926	4.02182E-09
1257.86377	4.02250E-09
1257.98816	4.02318E-09
1258.11267	4.02386E-09
1258.23706	4.02454E-09
1258.36157	4.02521E-09
1258.48596	4.02588E-09
1258.61047	4.02654E-09
1258.73486	4.02720E-09
1258.85938	4.02785E-09
1258.98377	4.02850E-09
1259.10828	4.02915E-09
1259.23267	4.02978E-09
1259.35718	4.03042E-09
1259.48169	4.03104E-09
1259.60608	4.03166E-09
1259.73059	4.03227E-09
1259.85498	4.03287E-09
1259.97949	4.03347E-09
1260.10388	4.03406E-09
1260.22839	4.03465E-09
1260.35278	4.03522E-09
1260.47730	4.03580E-09
1260.60169	4.03635E-09
1260.72620	4.03691E-09
1260.85059	4.03745E-09
1260.97510	4.03799E-09
1261.09949	4.03851E-09
1261.22400	4.03903E-09
1261.34851	4.03954E-09
1261.47290	4.04005E-09
1261.59741	4.04054E-09
1261.72180	4.04103E-09
1261.84631	4.04151E-09
1261.97070	4.04198E-09
1262.09522	4.04244E-09
1262.21960	4.04289E-09
1262.34412	4.04333E-09
1262.46851	4.04377E-09
1262.59302	4.04420E-09
1262.71741	4.04462E-09
1262.84192	4.04503E-09
1262.96631	4.04544E-09
1263.09082	4.04583E-09
1263.21533	4.04623E-09
1263.33972	4.04661E-09
1263.46423	4.04698E-09
1263.58862	4.04735E-09
1263.71314	4.04772E-09
1263.83752	4.04807E-09
1263.96204	4.04842E-09
1264.08643	4.04877E-09
1264.21094	4.04911E-09
1264.33533	4.04944E-09
1264.45984	4.04977E-09
1264.58423	4.05009E-09
1264.70874	4.05041E-09
1264.83313	4.05073E-09
1264.95764	4.05104E-09
1265.08215	4.05134E-09
1265.20654	4.05164E-09
1265.33106	4.05195E-09
1265.45544	4.05224E-09
1265.57996	4.05254E-09
1265.70435	4.05283E-09
1265.82886	4.05312E-09
1265.95325	4.05341E-09
1266.07776	4.05369E-09
1266.20215	4.05398E-09
1266.32666	4.05426E-09
1266.45105	4.05454E-09
1266.57556	4.05482E-09
1266.69995	4.05510E-09
1266.82446	4.05538E-09
1266.94898	4.05567E-09
1267.07336	4.05594E-09
1267.19788	4.05623E-09
1267.32227	4.05651E-09
1267.44678	4.05679E-09
1267.57117	4.05708E-09
1267.69568	4.05736E-09
1267.82007	4.05765E-09
1267.94458	4.05794E-09
1268.06897	4.05823E-09
1268.19348	4.05852E-09
1268.31787	4.05882E-09
1268.44238	4.05912E-09
1268.56677	4.05942E-09
1268.69128	4.05972E-09
1268.81580	4.06003E-09
1268.94019	4.06033E-09
1269.06470	4.06064E-09
1269.18909	4.06096E-09
1269.31360	4.06127E-09
1269.43799	4.06159E-09
1269.56250	4.06191E-09
1269.68689	4.06223E-09
1269.81140	4.06256E-09
1269.93579	4.06288E-09
1270.06030	4.06321E-09
1270.18469	4.06354E-09
1270.30920	4.06388E-09
1270.43359	4.06421E-09
1270.55811	4.06455E-09
1270.68262	4.06490E-09
1270.80701	4.06524E-09
1270.93152	4.06558E-09
1271.05591	4.06593E-09
1271.18042	4.06628E-09
1271.30481	4.06663E-09
1271.42932	4.06698E-09
1271.55371	4.06733E-09
1271.67822	4.06769E-09
1271.80261	4.06804E-09
1271.92712	4.06840E-09
1272.05151	4.06875E-09
1272.17603	4.06910E-09
1272.30042	4.06946E-09
1272.42493	4.06981E-09
1272.54944	4.07016E-09
1272.67383	4.07052E-09
1272.79834	4.07087E-09
1272.92273	4.07122E-09
1273.04724	4.07157E-09
1273.17163	4.07192E-09
1273.29614	4.07226E-09
1273.42053	4.07261E-09
1273.54504	4.07295E-09
1273.66943	4.07329E-09
1273.79395	4.07362E-09
1273.91834	4.07396E-09
1274.04285	4.07429E-09
1274.16724	4.07461E-09
1274.29175	4.07493E-09
1274.41626	4.07525E-09
1274.54065	4.07556E-09
1274.66516	4.07587E-09
1274.78955	4.07618E-09
1274.91406	4.07648E-09
1275.03845	4.07678E-09
1275.16296	4.07707E-09
1275.28735	4.07736E-09
1275.41187	4.07765E-09
1275.53626	4.07792E-09
1275.66077	4.07820E-09
1275.78516	4.07847E-09
1275.90967	4.07873E-09
1276.03406	4.07898E-09
1276.15857	4.07924E-09
1276.28296	4.07949E-09
1276.40747	4.07973E-09
1276.53198	4.07997E-09
1276.65637	4.08020E-09
1276.78088	4.08043E-09
1276.90527	4.08066E-09
1277.02979	4.08088E-09
1277.15418	4.08109E-09
1277.27869	4.08130E-09
1277.40308	4.08151E-09
1277.52759	4.08171E-09
1277.65198	4.08190E-09
1277.77649	4.08209E-09
1277.90088	4.08228E-09
1278.02539	4.08247E-09
1278.14978	4.08265E-09
1278.27429	4.08283E-09
1278.39880	4.08300E-09
1278.52319	4.08317E-09
1278.64771	4.08335E-09
1278.77210	4.08351E-09
1278.89661	4.08368E-09
1279.02100	4.08385E-09
1279.14551	4.08401E-09
1279.26990	4.08417E-09
1279.39441	4.08433E-09
1279.51880	4.08450E-09
1279.64331	4.08466E-09
1279.76770	4.08482E-09
1279.89221	4.08498E-09
1280.01660	4.08515E-09
1280.14111	4.08531E-09
1280.26563	4.08548E-09
1280.39002	4.08565E-09
1280.51453	4.08582E-09
1280.63892	4.08599E-09
1280.76343	4.08617E-09
1280.88782	4.08635E-09
1281.01233	4.08653E-09
1281.13672	4.08672E-09
1281.26123	4.08691E-09
1281.38562	4.08711E-09
1281.51013	4.08731E-09
1281.63452	4.08752E-09
1281.75903	4.08773E-09
1281.88342	4.08795E-09
1282.00794	4.08818E-09
1282.13245	4.08841E-09
1282.25684	4.08865E-09
1282.38135	4.08890E-09
1282.50574	4.08915E-09
1282.63025	4.08942E-09
1282.75464	4.08969E-09
1282.87915	4.08997E-09
1283.00354	4.09025E-09
1283.12805	4.09055E-09
1283.25244	4.09085E-09
1283.37695	4.09117E-09
1283.50134	4.09149E-09
1283.62585	4.09182E-09
1283.75024	4.09216E-09
1283.87476	4.09252E-09
1283.99927	4.09288E-09
1284.12366	4.09325E-09
1284.24817	4.09363E-09
1284.37256	4.09402E-09
1284.49707	4.09442E-09
1284.62146	4.09483E-09
1284.74597	4.09525E-09
1284.87036	4.09568E-09
1284.99487	4.09612E-09
1285.11926	4.09657E-09
1285.24377	4.09702E-09
1285.36816	4.09749E-09
1285.49268	4.09797E-09
1285.61707	4.09845E-09
1285.74158	4.09895E-09
1285.86609	4.09945E-09
1285.99048	4.09996E-09
1286.11499	4.10048E-09
1286.23938	4.10101E-09
1286.36389	4.10154E-09
1286.48828	4.10209E-09
1286.61279	4.10264E-09
1286.73718	4.10319E-09
1286.86169	4.10376E-09
1286.98608	4.10433E-09
1287.11060	4.10491E-09
1287.23499	4.10549E-09
1287.35950	4.10608E-09
1287.48389	4.10667E-09
1287.60840	4.10726E-09
1287.73291	4.10787E-09
1287.85730	4.10847E-09
1287.98181	4.10908E-09
1288.10620	4.10969E-09
1288.23071	4.11031E-09
1288.35510	4.11093E-09
1288.47961	4.11155E-09
1288.60400	4.11217E-09
1288.72852	4.11279E-09
1288.85291	4.11341E-09
1288.97742	4.11404E-09
1289.10181	4.11466E-09
1289.22632	4.11528E-09
1289.35071	4.11591E-09
1289.47522	4.11652E-09
1289.59973	4.11714E-09
1289.72412	4.11776E-09
1289.84863	4.11837E-09
1289.97302	4.11899E-09
1290.09753	4.11959E-09
1290.22192	4.12020E-09
1290.34644	4.12080E-09
1290.47083	4.12139E-09
1290.59534	4.12198E-09
1290.71973	4.12257E-09
1290.84424	4.12314E-09
1290.96863	4.12372E-09
1291.09314	4.12429E-09
1291.21753	4.12485E-09
1291.34204	4.12541E-09
1291.46655	4.12595E-09
1291.59094	4.12649E-09
1291.71545	4.12703E-09
1291.83984	4.12756E-09
1291.96436	4.12808E-09
1292.08875	4.12859E-09
1292.21326	4.12910E-09
1292.33765	4.12960E-09
1292.46216	4.13009E-09
1292.58655	4.13057E-09
1292.71106	4.13104E-09
1292.83545	4.13150E-09
1292.95996	4.13196E-09
1293.08435	4.13241E-09
1293.20886	4.13285E-09
1293.33337	4.13328E-09
1293.45776	4.13371E-09
1293.58228	4.13413E-09
1293.70667	4.13454E-09
1293.83118	4.13494E-09
1293.95557	4.13533E-09
1294.08008	4.13572E-09
1294.20447	4.13610E-09
1294.32898	4.13648E-09
1294.45337	4.13684E-09
1294.57788	4.13720E-09
1294.70227	4.13756E-09
1294.82678	4.13790E-09
1294.95117	4.13825E-09
1295.07568	4.13858E-09
1295.20020	4.13892E-09
1295.32459	4.13924E-09
1295.44910	4.13956E-09
1295.57349	4.13988E-09
1295.69800	4.14020E-09
1295.82239	4.14051E-09
1295.94690	4.14082E-09
1296.07129	4.14112E-09
1296.19580	4.14143E-09
1296.32019	4.14173E-09
1296.44470	4.14203E-09
1296.56909	4.14233E-09
1296.69360	4.14262E-09
1296.81799	4.14292E-09
1296.94251	4.14322E-09
1297.06690	4.14352E-09
1297.19141	4.14382E-09
1297.31592	4.14412E-09
1297.44031	4.14443E-09
1297.56482	4.14473E-09
1297.68921	4.14504E-09
1297.81372	4.14535E-09
1297.93811	4.14566E-09
1298.06262	4.14598E-09
1298.18701	4.14630E-09
1298.31152	4.14663E-09
1298.43591	4.14696E-09
1298.56043	4.14729E-09
1298.68481	4.14764E-09
1298.80933	4.14799E-09
1298.93372	4.14834E-09
1299.05823	4.14870E-09
1299.18274	4.14907E-09
1299.30713	4.14945E-09
1299.43164	4.14983E-09
1299.55603	4.15022E-09
1299.68054	4.15062E-09
1299.80493	4.15103E-09
1299.92944	4.15144E-09
1300.05383	4.15186E-09
1300.17835	4.15230E-09
1300.30273	4.15274E-09
1300.42725	4.15319E-09
1300.55164	4.15365E-09
1300.67615	4.15412E-09
1300.80054	4.15460E-09
1300.92505	4.15509E-09
1301.04956	4.15558E-09
1301.17395	4.15609E-09
1301.29846	4.15660E-09
1301.42285	4.15713E-09
1301.54736	4.15766E-09
1301.67175	4.15820E-09
1301.79627	4.15876E-09
1301.92065	4.15932E-09
1302.04517	4.15990E-09
1302.16956	4.16048E-09
1302.29407	4.16107E-09
1302.41846	4.16167E-09
1302.54297	4.16227E-09
1302.66736	4.16289E-09
1302.79187	4.16351E-09
1302.91638	4.16415E-09
1303.04077	4.16479E-09
1303.16528	4.16543E-09
1303.28967	4.16609E-09
1303.41419	4.16676E-09
1303.53857	4.16742E-09
1303.66309	4.16810E-09
1303.78748	4.16878E-09
1303.91199	4.16947E-09
1304.03638	4.17016E-09
1304.16089	4.17086E-09
1304.28528	4.17156E-09
1304.40979	4.17227E-09
1304.53418	4.17298E-09
1304.65869	4.17370E-09
1304.78320	4.17442E-09
1304.90759	4.17514E-09
1305.03210	4.17586E-09
1305.15649	4.17659E-09
1305.28101	4.17731E-09
1305.40540	4.17804E-09
1305.52991	4.17878E-09
1305.65430	4.17951E-09
1305.77881	4.18023E-09
1305.90320	4.18097E-09
1306.02771	4.18169E-09
1306.15210	4.18242E-09
1306.27661	4.18315E-09
1306.40100	4.18388E-09
1306.52551	4.18460E-09
1306.65002	4.18532E-09
1306.77441	4.18604E-09
1306.89893	4.18675E-09
1307.02332	4.18746E-09
1307.14783	4.18817E-09
1307.27222	4.18887E-09
1307.39673	4.18957E-09
1307.52112	4.19027E-09
1307.64563	4.19095E-09
1307.77002	4.19163E-09
1307.89453	4.19231E-09
1308.01892	4.19298E-09
1308.14343	4.19364E-09
1308.26782	4.19430E-09
1308.39233	4.19495E-09
1308.51685	4.19560E-09
1308.64124	4.19623E-09
1308.76575	4.19686E-09
1308.89014	4.19748E-09
1309.01465	4.19810E-09
1309.13904	4.19870E-09
1309.26355	4.19930E-09
1309.38794	4.19989E-09
1309.51245	4.20047E-09
1309.63684	4.20104E-09
1309.76135	4.20161E-09
1309.88574	4.20216E-09
1310.01025	4.20271E-09
1310.13464	4.20325E-09
1310.25916	4.20378E-09
1310.38367	4.20430E-09
1310.50806	4.20481E-09
1310.63257	4.20531E-09
1310.75696	4.20581E-09
1310.88147	4.20629E-09
1311.00586	4.20677E-09
1311.13037	4.20724E-09
1311.25476	4.20771E-09
1311.37927	4.20816E-09
1311.50366	4.20861E-09
1311.62817	4.20905E-09
1311.75256	4.20948E-09
1311.87708	4.20990E-09
1312.00147	4.21031E-09
1312.12598	4.21072E-09
1312.25049	4.21112E-09
1312.37488	4.21151E-09
1312.49939	4.21190E-09
1312.62378	4.21228E-09
1312.74829	4.21265E-09
1312.87268	4.21302E-09
1312.99719	4.21338E-09
1313.12158	4.21373E-09
1313.24609	4.21409E-09
1313.37048	4.21443E-09
1313.49500	4.21477E-09
1313.61939	4.21510E-09
1313.74390	4.21544E-09
1313.86829	4.21576E-09
1313.99280	4.21608E-09
1314.11731	4.21641E-09
1314.24170	4.21672E-09
1314.36621	4.21704E-09
1314.49060	4.21735E-09
1314.61511	4.21765E-09
1314.73950	4.21796E-09
1314.86401	4.21826E-09
1314.98840	4.21855E-09
1315.11292	4.21885E-09
1315.23731	4.21914E-09
1315.36182	4.21943E-09
1315.48621	4.21972E-09
1315.61072	4.22002E-09
1315.73511	4.22031E-09
1315.85962	4.22060E-09
1315.98413	4.22088E-09
1316.10852	4.22117E-09
1316.23303	4.22146E-09
1316.35742	4.22175E-09
1316.48193	4.22203E-09
1316.60632	4.22232E-09
1316.73084	4.22260E-09
1316.85523	4.22289E-09
1316.97974	4.22317E-09
1317.10413	4.22346E-09
1317.22864	4.22375E-09
1317.35303	4.22404E-09
1317.47754	4.22433E-09
1317.60193	4.22461E-09
1317.72644	4.22490E-09
1317.85095	4.22520E-09
1317.97534	4.22549E-09
1318.09985	4.22578E-09
1318.22424	4.22607E-09
1318.34876	4.22637E-09
1318.47315	4.22667E-09
1318.59766	4.22696E-09
1318.72205	4.22726E-09
1318.84656	4.22755E-09
1318.97095	4.22785E-09
1319.09546	4.22815E-09
1319.21985	4.22845E-09
1319.34436	4.22875E-09
1319.46875	4.22905E-09
1319.59326	4.22935E-09
1319.71765	4.22965E-09
1319.84216	4.22995E-09
1319.96668	4.23026E-09
1320.09106	4.23056E-09
1320.21558	4.23087E-09
1320.33997	4.23117E-09
1320.46448	4.23148E-09
1320.58887	4.23178E-09
1320.71338	4.23209E-09
1320.83777	4.23240E-09
1320.96228	4.23270E-09
1321.08667	4.23301E-09
1321.21118	4.23332E-09
1321.33557	4.23362E-09
1321.46008	4.23393E-09
1321.58447	4.23423E-09
1321.70898	4.23454E-09
1321.83350	4.23484E-09
1321.95789	4.23515E-09
1322.08240	4.23545E-09
1322.20679	4.23576E-09
1322.33130	4.23606E-09
1322.45569	4.23636E-09
1322.58020	4.23667E-09
1322.70459	4.23697E-09
1322.82910	4.23727E-09
1322.95349	4.23757E-09
1323.07800	4.23787E-09
1323.20239	4.23817E-09
1323.32690	4.23847E-09
1323.45129	4.23877E-09
1323.57581	4.23907E-09
1323.70032	4.23937E-09
1323.82471	4.23967E-09
1323.94922	4.23996E-09
1324.07361	4.24026E-09
1324.19812	4.24056E-09
1324.32251	4.24085E-09
1324.44702	4.24115E-09
1324.57141	4.24145E-09
1324.69592	4.24174E-09
1324.82031	4.24204E-09
1324.94482	4.24234E-09
1325.06921	4.24263E-09
1325.19373	4.24293E-09
1325.31812	4.24323E-09
1325.44263	4.24353E-09
1325.56714	4.24383E-09
1325.69153	4.24413E-09
1325.81604	4.24443E-09
1325.94043	4.24474E-09
1326.06494	4.24504E-09
1326.18933	4.24535E-09
1326.31384	4.24566E-09
1326.43823	4.24597E-09
1326.56274	4.24628E-09
1326.68713	4.24659E-09
1326.81165	4.24690E-09
1326.93604	4.24722E-09
1327.06055	4.24754E-09
1327.18494	4.24786E-09
1327.30945	4.24818E-09
1327.43396	4.24851E-09
1327.55835	4.24883E-09
1327.68286	4.24917E-09
1327.80725	4.24951E-09
1327.93176	4.24985E-09
1328.05615	4.25019E-09
1328.18066	4.25054E-09
1328.30505	4.25089E-09
1328.42957	4.25125E-09
1328.55396	4.25161E-09
1328.67847	4.25198E-09
1328.80286	4.25235E-09
1328.92737	4.25273E-09
1329.05176	4.25311E-09
1329.17627	4.25350E-09
1329.30078	4.25389E-09
1329.42517	4.25428E-09
1329.54968	4.25468E-09
1329.67407	4.25509E-09
1329.79858	4.25551E-09
1329.92297	4.25593E-09
1330.04749	4.25636E-09
1330.17188	4.25679E-09
1330.29639	4.25723E-09
1330.42078	4.25768E-09
1330.54529	4.25813E-09
1330.66968	4.25859E-09
1330.79419	4.25906E-09
1330.91858	4.25953E-09
1331.04309	4.26001E-09
1331.16760	4.26050E-09
1331.29199	4.26099E-09
1331.41650	4.26149E-09
1331.54089	4.26200E-09
1331.66541	4.26251E-09
1331.78980	4.26303E-09
1331.91431	4.26356E-09
1332.03870	4.26409E-09
1332.16321	4.26463E-09
1332.28760	4.26518E-09
1332.41211	4.26574E-09
1332.53650	4.26630E-09
1332.66101	4.26686E-09
1332.78540	4.26744E-09
1332.90991	4.26802E-09
1333.03442	4.26860E-09
1333.15881	4.26920E-09
1333.28333	4.26980E-09
1333.40772	4.27040E-09
1333.53223	4.27101E-09
1333.65662	4.27163E-09
1333.78113	4.27225E-09
1333.90552	4.27289E-09
1334.03003	4.27352E-09
1334.15442	4.27416E-09
1334.27893	4.27481E-09
1334.40332	4.27546E-09
1334.52783	4.27611E-09
1334.65222	4.27677E-09
1334.77673	4.27744E-09
1334.90125	4.27811E-09
1335.02564	4.27879E-09
1335.15015	4.27946E-09
1335.27454	4.28015E-09
1335.39905	4.28083E-09
1335.52344	4.28152E-09
1335.64795	4.28222E-09
1335.77234	4.28292E-09
1335.89685	4.28362E-09
1336.02124	4.28433E-09
1336.14575	4.28504E-09
1336.27014	4.28575E-09
1336.39465	4.28647E-09
1336.51904	4.28718E-09
1336.64356	4.28790E-09
1336.76807	4.28862E-09
1336.89246	4.28934E-09
1337.01697	4.29007E-09
1337.14136	4.29080E-09
1337.26587	4.29153E-09
1337.39026	4.29226E-09
1337.51477	4.29299E-09
1337.63916	4.29373E-09
1337.76367	4.29446E-09
1337.88806	4.29520E-09
1338.01257	4.29593E-09
1338.13696	4.29667E-09
1338.26148	4.29740E-09
1338.38586	4.29814E-09
1338.51038	4.29888E-09
1338.63489	4.29962E-09
1338.75928	4.30036E-09
1338.88379	4.30109E-09
1339.00818	4.30183E-09
1339.13269	4.30257E-09
1339.25708	4.30331E-09
1339.38159	4.30405E-09
1339.50598	4.30479E-09
1339.63049	4.30552E-09
1339.75488	4.30626E-09
1339.87940	4.30699E-09
1340.00378	4.30773E-09
1340.12830	4.30846E-09
1340.25269	4.30920E-09
1340.37720	4.30993E-09
1340.50171	4.31066E-09
1340.62610	4.31139E-09
1340.75061	4.31212E-09
1340.87500	4.31284E-09
1340.99951	4.31357E-09
1341.12390	4.31430E-09
1341.24841	4.31502E-09
1341.37280	4.31574E-09
1341.49731	4.31646E-09
1341.62170	4.31718E-09
1341.74622	4.31790E-09
1341.87061	4.31862E-09
1341.99512	4.31933E-09
1342.11951	4.32004E-09
1342.24402	4.32075E-09
1342.36841	4.32147E-09
1342.49292	4.32217E-09
1342.61743	4.32288E-09
1342.74182	4.32358E-09
1342.86633	4.32428E-09
1342.99072	4.32498E-09
1343.11523	4.32567E-09
1343.23962	4.32637E-09
1343.36414	4.32706E-09
1343.48853	4.32775E-09
1343.61304	4.32844E-09
1343.73743	4.32912E-09
1343.86194	4.32980E-09
1343.98633	4.33048E-09
1344.11084	4.33116E-09
1344.23523	4.33183E-09
1344.35974	4.33250E-09
1344.48425	4.33317E-09
1344.60864	4.33383E-09
1344.73315	4.33449E-09
1344.85754	4.33514E-09
1344.98206	4.33579E-09
1345.10645	4.33644E-09
1345.23096	4.33709E-09
1345.35535	4.33773E-09
1345.47986	4.33837E-09
1345.60425	4.33900E-09
1345.72876	4.33963E-09
1345.85315	4.34025E-09
1345.97766	4.34087E-09
1346.10205	4.34148E-09
1346.22656	4.34209E-09
1346.35107	4.34270E-09
1346.47546	4.34330E-09
1346.59998	4.34389E-09
1346.72437	4.34448E-09
1346.84888	4.34506E-09
1346.97327	4.34564E-09
1347.09778	4.34622E-09
1347.22217	4.34678E-09
1347.34668	4.34735E-09
1347.47107	4.34790E-09
1347.59558	4.34845E-09
1347.71997	4.34899E-09
1347.84448	4.34953E-09
1347.96887	4.35007E-09
1348.09338	4.35059E-09
1348.21790	4.35111E-09
1348.34229	4.35162E-09
1348.46680	4.35213E-09
1348.59119	4.35264E-09
1348.71570	4.35313E-09
1348.84009	4.35362E-09
1348.96460	4.35410E-09
1349.08899	4.35458E-09
1349.21350	4.35505E-09
1349.33789	4.35551E-09
1349.46240	4.35597E-09
1349.58679	4.35642E-09
1349.71130	4.35686E-09
1349.83569	4.35731E-09
1349.96021	4.35774E-09
1350.08472	4.35817E-09
1350.20911	4.35859E-09
1350.33362	4.35900E-09
1350.45801	4.35941E-09
1350.58252	4.35981E-09
1350.70691	4.36021E-09
1350.83142	4.36060E-09
1350.95581	4.36098E-09
1351.08032	4.36136E-09
1351.20471	4.36174E-09
1351.32922	4.36211E-09
1351.45361	4.36247E-09
1351.57813	4.36283E-09
1351.70252	4.36319E-09
1351.82703	4.36354E-09
1351.95154	4.36389E-09
1352.07593	4.36423E-09
1352.20044	4.36457E-09
1352.32483	4.36491E-09
1352.44934	4.36524E-09
1352.57373	4.36557E-09
1352.69824	4.36590E-09
1352.82263	4.36623E-09
1352.94714	4.36655E-09
1353.07153	4.36688E-09
1353.19605	4.36720E-09
1353.32044	4.36752E-09
1353.44495	4.36785E-09
1353.56934	4.36817E-09
1353.69385	4.36849E-09
1353.81836	4.36881E-09
1353.94275	4.36913E-09
1354.06726	4.36945E-09
1354.19165	4.36977E-09
1354.31616	4.37010E-09
1354.44055	4.37043E-09
1354.56506	4.37076E-09
1354.68945	4.37109E-09
1354.81397	4.37143E-09
1354.93835	4.37177E-09
1355.06287	4.37211E-09
1355.18726	4.37245E-09
1355.31177	4.37281E-09
1355.43616	4.37316E-09
1355.56067	4.37352E-09
1355.68518	4.37389E-09
1355.80957	4.37425E-09
1355.93408	4.37463E-09
1356.05847	4.37501E-09
1356.18298	4.37540E-09
1356.30737	4.37579E-09
1356.43189	4.37619E-09
1356.55627	4.37659E-09
1356.68079	4.37700E-09
1356.80518	4.37742E-09
1356.92969	4.37785E-09
1357.05408	4.37828E-09
1357.17859	4.37873E-09
1357.30298	4.37917E-09
1357.42749	4.37963E-09
1357.55200	4.38009E-09
1357.67639	4.38056E-09
1357.80090	4.38103E-09
1357.92529	4.38152E-09
1358.04981	4.38201E-09
1358.17419	4.38251E-09
1358.29871	4.38301E-09
1358.42310	4.38353E-09
1358.54761	4.38404E-09
1358.67200	4.38457E-09
1358.79651	4.38510E-09
1358.92090	4.38564E-09
1359.04541	4.38618E-09
1359.16980	4.38673E-09
1359.29431	4.38729E-09
1359.41882	4.38785E-09
1359.54321	4.38841E-09
1359.66773	4.38898E-09
1359.79211	4.38956E-09
1359.91663	4.39014E-09
1360.04102	4.39072E-09
1360.16553	4.39130E-09
1360.28992	4.39188E-09
1360.41443	4.39247E-09
1360.53882	4.39306E-09
1360.66333	4.39365E-09
1360.78772	4.39423E-09
1360.91223	4.39482E-09
1361.03662	4.39541E-09
1361.16113	4.39600E-09
1361.28565	4.39658E-09
1361.41003	4.39716E-09
1361.53455	4.39773E-09
1361.65894	4.39831E-09
1361.78345	4.39887E-09
1361.90784	4.39944E-09
1362.03235	4.40000E-09
1362.15674	4.40055E-09
1362.28125	4.40109E-09
1362.40564	4.40163E-09
1362.53015	4.40216E-09
1362.65454	4.40268E-09
1362.77905	4.40319E-09
1362.90344	4.40369E-09
1363.02795	4.40417E-09
1363.15234	4.40465E-09
1363.27686	4.40511E-09
1363.40137	4.40557E-09
1363.52576	4.40600E-09
1363.65027	4.40642E-09
1363.77466	4.40684E-09
1363.89917	4.40723E-09
1364.02356	4.40761E-09
1364.14807	4.40797E-09
1364.27246	4.40831E-09
1364.39697	4.40864E-09
1364.52136	4.40895E-09
1364.64587	4.40924E-09
1364.77026	4.40952E-09
1364.89478	4.40977E-09
1365.01917	4.41001E-09
1365.14368	4.41023E-09
1365.26819	4.41043E-09
1365.39258	4.41061E-09
1365.51709	4.41077E-09
1365.64148	4.41090E-09
1365.76599	4.41102E-09
1365.89038	4.41112E-09
1366.01489	4.41120E-09
1366.13928	4.41125E-09
1366.26379	4.41129E-09
1366.38818	4.41131E-09
1366.51270	4.41130E-09
1366.63709	4.41128E-09
1366.76160	4.41124E-09
1366.88599	4.41118E-09
1367.01050	4.41110E-09
1367.13501	4.41100E-09
1367.25940	4.41088E-09
1367.38391	4.41075E-09
1367.50830	4.41060E-09
1367.63281	4.41044E-09
1367.75720	4.41025E-09
1367.88171	4.41006E-09
1368.00610	4.40984E-09
1368.13062	4.40961E-09
1368.25501	4.40937E-09
1368.37952	4.40912E-09
1368.50391	4.40885E-09
1368.62842	4.40858E-09
1368.75281	4.40829E-09
1368.87732	4.40799E-09
1369.00183	4.40769E-09
1369.12622	4.40738E-09
1369.25073	4.40706E-09
1369.37512	4.40673E-09
1369.49963	4.40640E-09
1369.62402	4.40608E-09
1369.74854	4.40575E-09
1369.87293	4.40541E-09
1369.99744	4.40507E-09
1370.12183	4.40474E-09
1370.24634	4.40441E-09
1370.37073	4.40408E-09
1370.49524	4.40376E-09
1370.61963	4.40345E-09
1370.74414	4.40314E-09
1370.86865	4.40284E-09
1370.99304	4.40255E-09
1371.11755	4.40227E-09
1371.24194	4.40201E-09
1371.36646	4.40176E-09
1371.49085	4.40152E-09
1371.61536	4.40130E-09
1371.73975	4.40109E-09
1371.86426	4.40091E-09
1371.98865	4.40074E-09
1372.11316	4.40059E-09
1372.23755	4.40047E-09
1372.36206	4.40037E-09
1372.48645	4.40029E-09
1372.61096	4.40024E-09
1372.73547	4.40021E-09
1372.85986	4.40021E-09
1372.98438	4.40024E-09
1373.10877	4.40029E-09
1373.23328	4.40038E-09
1373.35767	4.40050E-09
1373.48218	4.40065E-09
1373.60657	4.40083E-09
1373.73108	4.40104E-09
1373.85547	4.40129E-09
1373.97998	4.40157E-09
1374.10437	4.40189E-09
1374.22888	4.40224E-09
1374.35327	4.40263E-09
1374.47778	4.40305E-09
1374.60230	4.40351E-09
1374.72669	4.40401E-09
1374.85120	4.40454E-09
1374.97559	4.40511E-09
1375.10010	4.40572E-09
1375.22449	4.40636E-09
1375.34900	4.40704E-09
1375.47339	4.40776E-09
1375.59790	4.40851E-09
1375.72229	4.40930E-09
1375.84680	4.41013E-09
1375.97119	4.41099E-09
1376.09570	4.41189E-09
1376.22009	4.41283E-09
1376.34460	4.41380E-09
1376.46912	4.41480E-09
1376.59351	4.41584E-09
1376.71802	4.41691E-09
1376.84241	4.41801E-09
1376.96692	4.41914E-09
1377.09131	4.42031E-09
1377.21582	4.42150E-09
1377.34021	4.42272E-09
1377.46472	4.42397E-09
1377.58911	4.42525E-09
1377.71362	4.42655E-09
1377.83801	4.42787E-09
1377.96252	4.42921E-09
1378.08691	4.43058E-09
1378.21143	4.43196E-09
1378.33594	4.43336E-09
1378.46033	4.43478E-09
1378.58484	4.43622E-09
1378.70923	4.43767E-09
1378.83374	4.43913E-09
1378.95813	4.44060E-09
1379.08264	4.44208E-09
1379.20703	4.44356E-09
1379.33154	4.44505E-09
1379.45593	4.44654E-09
1379.58044	4.44804E-09
1379.70483	4.44953E-09
1379.82935	4.45102E-09
1379.95374	4.45251E-09
1380.07825	4.45399E-09
1380.20276	4.45547E-09
1380.32715	4.45693E-09
1380.45166	4.45838E-09
1380.57605	4.45982E-09
1380.70056	4.46125E-09
1380.82495	4.46266E-09
1380.94946	4.46405E-09
1381.07385	4.46541E-09
1381.19836	4.46676E-09
1381.32275	4.46808E-09
1381.44727	4.46938E-09
1381.57166	4.47065E-09
1381.69617	4.47188E-09
1381.82056	4.47309E-09
1381.94507	4.47426E-09
1382.06958	4.47541E-09
1382.19397	4.47651E-09
1382.31848	4.47758E-09
1382.44287	4.47861E-09
1382.56738	4.47960E-09
1382.69177	4.48055E-09
1382.81628	4.48145E-09
1382.94067	4.48231E-09
1383.06519	4.48314E-09
1383.18958	4.48391E-09
1383.31409	4.48463E-09
1383.43848	4.48531E-09
1383.56299	4.48595E-09
1383.68738	4.48653E-09
1383.81189	4.48707E-09
1383.93640	4.48755E-09
1384.06079	4.48799E-09
1384.18530	4.48838E-09
1384.30969	4.48871E-09
1384.43420	4.48899E-09
1384.55859	4.48922E-09
1384.68311	4.48940E-09
1384.80750	4.48953E-09
1384.93201	4.48961E-09
1385.05640	4.48964E-09
1385.18091	4.48961E-09
1385.30530	4.48954E-09
1385.42981	4.48941E-09
1385.55420	4.48924E-09
1385.67871	4.48902E-09
1385.80310	4.48875E-09
1385.92761	4.48843E-09
1386.05212	4.48807E-09
1386.17651	4.48767E-09
1386.30103	4.48722E-09
1386.42542	4.48672E-09
1386.54993	4.48619E-09
1386.67432	4.48561E-09
1386.79883	4.48500E-09
1386.92322	4.48435E-09
1387.04773	4.48366E-09
1387.17212	4.48294E-09
1387.29663	4.48218E-09
1387.42102	4.48140E-09
1387.54553	4.48058E-09
1387.66992	4.47973E-09
1387.79443	4.47886E-09
1387.91895	4.47797E-09
1388.04334	4.47705E-09
1388.16785	4.47611E-09
1388.29224	4.47515E-09
1388.41675	4.47418E-09
1388.54114	4.47319E-09
1388.66565	4.47219E-09
1388.79004	4.47118E-09
1388.91455	4.47016E-09
1389.03894	4.46912E-09
1389.16345	4.46809E-09
1389.28784	4.46705E-09
1389.41235	4.46601E-09
1389.53674	4.46497E-09
1389.66126	4.46394E-09
1389.78577	4.46290E-09
1389.91016	4.46188E-09
1390.03467	4.46086E-09
1390.15906	4.45986E-09
1390.28357	4.45886E-09
1390.40796	4.45788E-09
1390.53247	4.45691E-09
1390.65686	4.45596E-09
1390.78137	4.45503E-09
1390.90576	4.45413E-09
1391.03027	4.45324E-09
1391.15466	4.45238E-09
1391.27918	4.45154E-09
1391.40356	4.45073E-09
1391.52808	4.44994E-09
1391.65259	4.44919E-09
1391.77698	4.44847E-09
1391.90149	4.44778E-09
1392.02588	4.44712E-09
1392.15039	4.44649E-09
1392.27478	4.44590E-09
1392.39929	4.44535E-09
1392.52368	4.44483E-09
1392.64819	4.44435E-09
1392.77258	4.44391E-09
1392.89710	4.44351E-09
1393.02148	4.44314E-09
1393.14600	4.44282E-09
1393.27039	4.44254E-09
1393.39490	4.44229E-09
1393.51941	4.44210E-09
1393.64380	4.44193E-09
1393.76831	4.44181E-09
1393.89270	4.44173E-09
1394.01721	4.44170E-09
1394.14160	4.44170E-09
1394.26611	4.44174E-09
1394.39050	4.44183E-09
1394.51502	4.44196E-09
1394.63940	4.44212E-09
1394.76392	4.44233E-09
1394.88831	4.44257E-09
1395.01282	4.44285E-09
1395.13721	4.44317E-09
1395.26172	4.44352E-09
1395.38623	4.44391E-09
1395.51062	4.44433E-09
1395.63513	4.44479E-09
1395.75952	4.44528E-09
1395.88403	4.44581E-09
1396.00842	4.44636E-09
1396.13294	4.44694E-09
1396.25732	4.44755E-09
1396.38184	4.44819E-09
1396.50623	4.44885E-09
1396.63074	4.44954E-09
1396.75513	4.45025E-09
1396.87964	4.45098E-09
1397.00403	4.45173E-09
1397.12854	4.45250E-09
1397.25305	4.45329E-09
1397.37744	4.45409E-09
1397.50195	4.45490E-09
1397.62634	4.45573E-09
1397.75085	4.45656E-09
1397.87524	4.45741E-09
1397.99976	4.45826E-09
1398.12415	4.45912E-09
1398.24866	4.45998E-09
1398.37305	4.46084E-09
1398.49756	4.46171E-09
1398.62195	4.46257E-09
1398.74646	4.46343E-09
1398.87085	4.46429E-09
1398.99536	4.46514E-09
1399.11987	4.46599E-09
1399.24426	4.46682E-09
1399.36877	4.46765E-09
1399.49316	4.46847E-09
1399.61768	4.46927E-09
1399.74207	4.47005E-09
1399.86658	4.47083E-09
1399.99097	4.47158E-09
1400.11548	4.47231E-09
1400.23987	4.47303E-09
1400.36438	4.47372E-09
1400.48877	4.47440E-09
1400.61328	4.47504E-09
1400.73767	4.47567E-09
1400.86218	4.47627E-09
1400.98669	4.47684E-09
1401.11108	4.47739E-09
1401.23560	4.47791E-09
1401.35999	4.47840E-09
1401.48450	4.47887E-09
1401.60889	4.47930E-09
1401.73340	4.47971E-09
1401.85779	4.48008E-09
1401.98230	4.48042E-09
1402.10669	4.48073E-09
1402.23120	4.48101E-09
1402.35559	4.48127E-09
1402.48010	4.48149E-09
1402.60449	4.48168E-09
1402.72900	4.48184E-09
1402.85352	4.48196E-09
1402.97791	4.48206E-09
1403.10242	4.48212E-09
1403.22681	4.48216E-09
1403.35132	4.48216E-09
1403.47571	4.48214E-09
1403.60022	4.48209E-09
1403.72461	4.48201E-09
1403.84912	4.48190E-09
1403.97351	4.48177E-09
1404.09802	4.48161E-09
1404.22241	4.48142E-09
1404.34692	4.48121E-09
1404.47131	4.48098E-09
1404.59583	4.48073E-09
1404.72034	4.48045E-09
1404.84473	4.48016E-09
1404.96924	4.47985E-09
1405.09363	4.47952E-09
1405.21814	4.47917E-09
1405.34253	4.47881E-09
1405.46704	4.47844E-09
1405.59143	4.47805E-09
1405.71594	4.47766E-09
1405.84033	4.47725E-09
1405.96484	4.47683E-09
1406.08923	4.47641E-09
1406.21375	4.47598E-09
1406.33814	4.47555E-09
1406.46265	4.47511E-09
1406.58716	4.47468E-09
1406.71155	4.47424E-09
1406.83606	4.47380E-09
1406.96045	4.47337E-09
1407.08496	4.47294E-09
1407.20935	4.47251E-09
1407.33386	4.47209E-09
1407.45825	4.47168E-09
1407.58276	4.47128E-09
1407.70715	4.47089E-09
1407.83167	4.47051E-09
1407.95606	4.47014E-09
1408.08057	4.46979E-09
1408.20496	4.46946E-09
1408.32947	4.46914E-09
1408.45386	4.46883E-09
1408.57837	4.46855E-09
1408.70288	4.46829E-09
1408.82727	4.46804E-09
1408.95178	4.46782E-09
1409.07617	4.46761E-09
1409.20068	4.46743E-09
1409.32507	4.46728E-09
1409.44959	4.46715E-09
1409.57398	4.46704E-09
1409.69849	4.46696E-09
1409.82288	4.46691E-09
1409.94739	4.46688E-09
1410.07178	4.46688E-09
1410.19629	4.46691E-09
1410.32068	4.46696E-09
1410.44519	4.46704E-09
1410.56970	4.46715E-09
1410.69409	4.46728E-09
1410.81860	4.46745E-09
1410.94299	4.46764E-09
1411.06751	4.46786E-09
1411.19190	4.46811E-09
1411.31641	4.46839E-09
1411.44080	4.46870E-09
1411.56531	4.46903E-09
1411.68970	4.46939E-09
1411.81421	4.46977E-09
1411.93860	4.47018E-09
1412.06311	4.47062E-09
1412.18750	4.47108E-09
1412.31201	4.47157E-09
1412.43652	4.47208E-09
1412.56091	4.47261E-09
1412.68543	4.47317E-09
1412.80981	4.47375E-09
1412.93433	4.47435E-09
1413.05872	4.47497E-09
1413.18323	4.47560E-09
1413.30762	4.47626E-09
1413.43213	4.47693E-09
1413.55652	4.47762E-09
1413.68103	4.47832E-09
1413.80542	4.47904E-09
1413.92993	4.47977E-09
1414.05432	4.48051E-09
1414.17883	4.48126E-09
1414.30335	4.48202E-09
1414.42773	4.48280E-09
1414.55225	4.48357E-09
1414.67664	4.48436E-09
1414.80115	4.48515E-09
1414.92554	4.48595E-09
1415.05005	4.48674E-09
1415.17444	4.48754E-09
1415.29895	4.48834E-09
1415.42334	4.48914E-09
1415.54785	4.48993E-09
1415.67224	4.49073E-09
1415.79675	4.49152E-09
1415.92114	4.49230E-09
1416.04565	4.49308E-09
1416.17017	4.49385E-09
1416.29456	4.49461E-09
1416.41907	4.49537E-09
1416.54346	4.49611E-09
1416.66797	4.49685E-09
1416.79236	4.49756E-09
1416.91687	4.49827E-09
1417.04126	4.49896E-09
1417.16577	4.49964E-09
1417.29016	4.50030E-09
1417.41467	4.50095E-09
1417.53906	4.50158E-09
1417.66357	4.50219E-09
1417.78796	4.50279E-09
1417.91248	4.50337E-09
1418.03699	4.50392E-09
1418.16138	4.50446E-09
1418.28589	4.50498E-09
1418.41028	4.50548E-09
1418.53479	4.50596E-09
1418.65918	4.50641E-09
1418.78369	4.50685E-09
1418.90808	4.50727E-09
1419.03259	4.50766E-09
1419.15698	4.50803E-09
1419.28149	4.50838E-09
1419.40588	4.50872E-09
1419.53040	4.50903E-09
1419.65479	4.50932E-09
1419.77930	4.50959E-09
1419.90381	4.50985E-09
1420.02820	4.51008E-09
1420.15271	4.51029E-09
1420.27710	4.51049E-09
1420.40161	4.51067E-09
1420.52600	4.51084E-09
1420.65051	4.51098E-09
1420.77490	4.51111E-09
1420.89941	4.51122E-09
1421.02380	4.51132E-09
1421.14832	4.51140E-09
1421.27271	4.51147E-09
1421.39722	4.51153E-09
1421.52161	4.51158E-09
1421.64612	4.51161E-09
1421.77063	4.51164E-09
1421.89502	4.51166E-09
1422.01953	4.51167E-09
1422.14392	4.51167E-09
1422.26843	4.51167E-09
1422.39282	4.51166E-09
1422.51733	4.51164E-09
1422.64172	4.51162E-09
1422.76624	4.51161E-09
1422.89063	4.51158E-09
1423.01514	4.51156E-09
1423.13953	4.51154E-09
1423.26404	4.51153E-09
1423.38843	4.51151E-09
1423.51294	4.51150E-09
1423.63745	4.51149E-09
1423.76184	4.51149E-09
1423.88635	4.51150E-09
1424.01074	4.51151E-09
1424.13525	4.51154E-09
1424.25964	4.51157E-09
1424.38416	4.51161E-09
1424.50855	4.51166E-09
1424.63306	4.51173E-09
1424.75745	4.51181E-09
1424.88196	4.51190E-09
1425.00635	4.51201E-09
1425.13086	4.51213E-09
1425.25525	4.51227E-09
1425.37976	4.51242E-09
1425.50427	4.51259E-09
1425.62866	4.51278E-09
1425.75317	4.51298E-09
1425.87756	4.51321E-09
1426.00208	4.51345E-09
1426.12647	4.51372E-09
1426.25098	4.51400E-09
1426.37537	4.51430E-09
1426.49988	4.51462E-09
1426.62427	4.51496E-09
1426.74878	4.51532E-09
1426.87317	4.51571E-09
1426.99768	4.51611E-09
1427.12207	4.51654E-09
1427.24658	4.51698E-09
1427.37109	4.51744E-09
1427.49548	4.51793E-09
1427.62000	4.51844E-09
1427.74439	4.51896E-09
1427.86890	4.51950E-09
1427.99329	4.52006E-09
1428.11780	4.52064E-09
1428.24219	4.52125E-09
1428.36670	4.52186E-09
1428.49109	4.52250E-09
1428.61560	4.52315E-09
1428.73999	4.52382E-09
1428.86450	4.52450E-09
1428.98889	4.52520E-09
1429.11340	4.52592E-09
1429.23792	4.52664E-09
1429.36231	4.52738E-09
1429.48682	4.52813E-09
1429.61121	4.52890E-09
1429.73572	4.52967E-09
1429.86011	4.53046E-09
1429.98462	4.53125E-09
1430.10901	4.53205E-09
1430.23352	4.53286E-09
1430.35791	4.53368E-09
1430.48242	4.53449E-09
1430.60681	4.53532E-09
1430.73132	4.53614E-09
1430.85571	4.53697E-09
1430.98023	4.53780E-09
1431.10461	4.53863E-09
1431.22913	4.53946E-09
1431.35364	4.54029E-09
1431.47803	4.54112E-09
1431.60254	4.54194E-09
1431.72693	4.54276E-09
1431.85144	4.54358E-09
1431.97583	4.54439E-09
1432.10034	4.54519E-09
1432.22473	4.54598E-09
1432.34924	4.54676E-09
1432.47363	4.54754E-09
1432.59815	4.54830E-09
1432.72253	4.54905E-09
1432.84705	4.54979E-09
1432.97144	4.55052E-09
1433.09595	4.55123E-09
1433.22046	4.55192E-09
1433.34485	4.55260E-09
1433.46936	4.55327E-09
1433.59375	4.55392E-09
1433.71826	4.55455E-09
1433.84265	4.55517E-09
1433.96716	4.55576E-09
1434.09155	4.55634E-09
1434.21606	4.55690E-09
1434.34045	4.55744E-09
1434.46497	4.55796E-09
1434.58936	4.55846E-09
1434.71387	4.55894E-09
1434.83826	4.55940E-09
1434.96277	4.55984E-09
1435.08728	4.56025E-09
1435.21167	4.56065E-09
1435.33618	4.56103E-09
1435.46057	4.56139E-09
1435.58508	4.56172E-09
1435.70947	4.56204E-09
1435.83398	4.56233E-09
1435.95837	4.56261E-09
1436.08289	4.56286E-09
1436.20728	4.56310E-09
1436.33179	4.56332E-09
1436.45618	4.56352E-09
1436.58069	4.56371E-09
1436.70508	4.56387E-09
1436.82959	4.56402E-09
1436.95410	4.56416E-09
1437.07849	4.56427E-09
1437.20300	4.56438E-09
1437.32739	4.56447E-09
1437.45190	4.56455E-09
1437.57629	4.56461E-09
1437.70081	4.56467E-09
1437.82520	4.56471E-09
1437.94971	4.56474E-09
1438.07410	4.56476E-09
1438.19861	4.56478E-09
1438.32300	4.56479E-09
1438.44751	4.56479E-09
1438.57190	4.56479E-09
1438.69641	4.56478E-09
1438.82092	4.56477E-09
1438.94531	4.56475E-09
1439.06982	4.56475E-09
1439.19421	4.56474E-09
1439.31873	4.56472E-09
1439.44312	4.56472E-09
1439.56763	4.56472E-09
1439.69202	4.56472E-09
1439.81653	4.56473E-09
1439.94092	4.56475E-09
1440.06543	4.56477E-09
1440.18982	4.56480E-09
1440.31433	4.56484E-09
1440.43872	4.56489E-09
1440.56323	4.56495E-09
1440.68774	4.56503E-09
1440.81213	4.56513E-09
1440.93665	4.56523E-09
1441.06104	4.56536E-09
1441.18555	4.56549E-09
1441.30994	4.56565E-09
1441.43445	4.56582E-09
1441.55884	4.56602E-09
1441.68335	4.56623E-09
1441.80774	4.56647E-09
1441.93225	4.56672E-09
1442.05664	4.56699E-09
1442.18115	4.56729E-09
1442.30554	4.56761E-09
1442.43005	4.56796E-09
1442.55457	4.56832E-09
1442.67896	4.56871E-09
1442.80347	4.56913E-09
1442.92786	4.56957E-09
1443.05237	4.57004E-09
1443.17676	4.57053E-09
1443.30127	4.57105E-09
1443.42566	4.57159E-09
1443.55017	4.57216E-09
1443.67456	4.57276E-09
1443.79907	4.57338E-09
1443.92346	4.57403E-09
1444.04797	4.57471E-09
1444.17236	4.57541E-09
1444.29688	4.57614E-09
1444.42139	4.57690E-09
1444.54578	4.57768E-09
1444.67029	4.57849E-09
1444.79468	4.57932E-09
1444.91919	4.58018E-09
1445.04358	4.58106E-09
1445.16809	4.58197E-09
1445.29248	4.58290E-09
1445.41699	4.58385E-09
1445.54138	4.58483E-09
1445.66589	4.58582E-09
1445.79028	4.58684E-09
1445.91480	4.58788E-09
1446.03919	4.58893E-09
1446.16370	4.59001E-09
1446.28821	4.59111E-09
1446.41260	4.59222E-09
1446.53711	4.59336E-09
1446.66150	4.59450E-09
1446.78601	4.59567E-09
1446.91040	4.59685E-09
1447.03491	4.59804E-09
1447.15930	4.59925E-09
1447.28381	4.60046E-09
1447.40820	4.60170E-09
1447.53272	4.60294E-09
1447.65710	4.60419E-09
1447.78162	4.60545E-09
1447.90601	4.60671E-09
1448.03052	4.60799E-09
1448.15503	4.60927E-09
1448.27942	4.61055E-09
1448.40393	4.61184E-09
1448.52832	4.61314E-09
1448.65283	4.61443E-09
1448.77722	4.61572E-09
1448.90173	4.61702E-09
1449.02612	4.61832E-09
1449.15064	4.61961E-09
1449.27502	4.62090E-09
1449.39954	4.62218E-09
1449.52393	4.62347E-09
1449.64844	4.62474E-09
1449.77283	4.62602E-09
1449.89734	4.62728E-09
1450.02185	4.62854E-09
1450.14624	4.62979E-09
1450.27075	4.63103E-09
1450.39514	4.63226E-09
1450.51965	4.63347E-09
1450.64404	4.63468E-09
1450.76856	4.63588E-09
1450.89294	4.63707E-09
1451.01746	4.63824E-09
1451.14185	4.63940E-09
1451.26636	4.64055E-09
1451.39075	4.64169E-09
1451.51526	4.64281E-09
1451.63965	4.64391E-09
1451.76416	4.64500E-09
1451.88855	4.64608E-09
1452.01306	4.64714E-09
1452.13757	4.64818E-09
1452.26196	4.64921E-09
1452.38648	4.65022E-09
1452.51086	4.65122E-09
1452.63538	4.65220E-09
1452.75977	4.65316E-09
1452.88428	4.65411E-09
1453.00867	4.65505E-09
1453.13318	4.65596E-09
1453.25757	4.65687E-09
1453.38208	4.65775E-09
1453.50647	4.65862E-09
1453.63098	4.65949E-09
1453.75537	4.66033E-09
1453.87988	4.66116E-09
1454.00440	4.66198E-09
1454.12878	4.66278E-09
1454.25330	4.66358E-09
1454.37769	4.66436E-09
1454.50220	4.66514E-09
1454.62659	4.66589E-09
1454.75110	4.66664E-09
1454.87549	4.66739E-09
1455.00000	4.66812E-09
1455.12439	4.66884E-09
1455.24890	4.66956E-09
1455.37329	4.67027E-09
1455.49780	4.67097E-09
1455.62219	4.67167E-09
1455.74670	4.67237E-09
1455.87122	4.67306E-09
1455.99561	4.67375E-09
1456.12012	4.67444E-09
1456.24451	4.67513E-09
1456.36902	4.67582E-09
1456.49341	4.67652E-09
1456.61792	4.67720E-09
1456.74231	4.67790E-09
1456.86682	4.67860E-09
1456.99121	4.67930E-09
1457.11572	4.68002E-09
1457.24011	4.68073E-09
1457.36462	4.68145E-09
1457.48901	4.68218E-09
1457.61353	4.68292E-09
1457.73804	4.68367E-09
1457.86243	4.68442E-09
1457.98694	4.68519E-09
1458.11133	4.68597E-09
1458.23584	4.68676E-09
1458.36023	4.68757E-09
1458.48474	4.68838E-09
1458.60913	4.68921E-09
1458.73364	4.69006E-09
1458.85803	4.69092E-09
1458.98254	4.69179E-09
1459.10693	4.69269E-09
1459.23145	4.69360E-09
1459.35584	4.69452E-09
1459.48035	4.69546E-09
1459.60486	4.69642E-09
1459.72925	4.69740E-09
1459.85376	4.69839E-09
1459.97815	4.69940E-09
1460.10266	4.70043E-09
1460.22705	4.70148E-09
1460.35156	4.70255E-09
1460.47595	4.70363E-09
1460.60046	4.70473E-09
1460.72485	4.70585E-09
1460.84937	4.70699E-09
1460.97376	4.70814E-09
1461.09827	4.70931E-09
1461.22266	4.71051E-09
1461.34717	4.71171E-09
1461.47168	4.71294E-09
1461.59607	4.71418E-09
1461.72058	4.71544E-09
1461.84497	4.71671E-09
1461.96948	4.71800E-09
1462.09387	4.71930E-09
1462.21838	4.72062E-09
1462.34277	4.72196E-09
1462.46729	4.72331E-09
1462.59168	4.72467E-09
1462.71619	4.72604E-09
1462.84058	4.72742E-09
1462.96509	4.72882E-09
1463.08948	4.73022E-09
1463.21399	4.73163E-09
1463.33850	4.73305E-09
1463.46289	4.73449E-09
1463.58740	4.73593E-09
1463.71179	4.73737E-09
1463.83630	4.73882E-09
1463.96069	4.74027E-09
1464.08521	4.74172E-09
1464.20960	4.74318E-09
1464.33411	4.74465E-09
1464.45850	4.74611E-09
1464.58301	4.74758E-09
1464.70740	4.74904E-09
1464.83191	4.75050E-09
1464.95630	4.75196E-09
1465.08081	4.75341E-09
1465.20532	4.75487E-09
1465.32971	4.75631E-09
1465.45422	4.75775E-09
1465.57861	4.75919E-09
1465.70313	4.76061E-09
1465.82752	4.76202E-09
1465.95203	4.76342E-09
1466.07642	4.76482E-09
1466.20093	4.76620E-09
1466.32532	4.76756E-09
1466.44983	4.76891E-09
1466.57422	4.77025E-09
1466.69873	4.77157E-09
1466.82312	4.77288E-09
1466.94763	4.77417E-09
1467.07214	4.77544E-09
1467.19653	4.77669E-09
1467.32105	4.77792E-09
1467.44544	4.77914E-09
1467.56995	4.78033E-09
1467.69434	4.78149E-09
1467.81885	4.78264E-09
1467.94324	4.78377E-09
1468.06775	4.78487E-09
1468.19214	4.78594E-09
1468.31665	4.78700E-09
1468.44104	4.78802E-09
1468.56555	4.78903E-09
1468.68994	4.79000E-09
1468.81445	4.79095E-09
1468.93897	4.79188E-09
1469.06335	4.79277E-09
1469.18787	4.79364E-09
1469.31226	4.79449E-09
1469.43677	4.79530E-09
1469.56116	4.79610E-09
1469.68567	4.79686E-09
1469.81006	4.79760E-09
1469.93457	4.79831E-09
1470.05896	4.79899E-09
1470.18347	4.79965E-09
1470.30786	4.80028E-09
1470.43237	4.80089E-09
1470.55676	4.80147E-09
1470.68127	4.80202E-09
1470.80579	4.80256E-09
1470.93018	4.80306E-09
1471.05469	4.80355E-09
1471.17908	4.80401E-09
1471.30359	4.80445E-09
1471.42798	4.80486E-09
1471.55249	4.80527E-09
1471.67688	4.80564E-09
1471.80139	4.80600E-09
1471.92578	4.80634E-09
1472.05029	4.80667E-09
1472.17468	4.80697E-09
1472.29919	4.80727E-09
1472.42358	4.80755E-09
1472.54810	4.80782E-09
1472.67261	4.80808E-09
1472.79700	4.80832E-09
1472.92151	4.80856E-09
1473.04590	4.80879E-09
1473.17041	4.80900E-09
1473.29480	4.80921E-09
1473.41931	4.80942E-09
1473.54370	4.80963E-09
1473.66821	4.80983E-09
1473.79260	4.81003E-09
1473.91711	4.81024E-09
1474.04150	4.81044E-09
1474.16602	4.81065E-09
1474.29041	4.81086E-09
1474.41492	4.81107E-09
1474.53931	4.81130E-09
1474.66382	4.81153E-09
1474.78833	4.81178E-09
1474.91272	4.81203E-09
1475.03723	4.81229E-09
1475.16162	4.81257E-09
1475.28613	4.81286E-09
1475.41052	4.81317E-09
1475.53503	4.81350E-09
1475.65942	4.81384E-09
1475.78394	4.81420E-09
1475.90833	4.81458E-09
1476.03284	4.81499E-09
1476.15723	4.81542E-09
1476.28174	4.81588E-09
1476.40613	4.81635E-09
1476.53064	4.81686E-09
1476.65515	4.81739E-09
1476.77954	4.81796E-09
1476.90405	4.81855E-09
1477.02844	4.81917E-09
1477.15295	4.81982E-09
1477.27734	4.82051E-09
1477.40186	4.82123E-09
1477.52625	4.82198E-09
1477.65076	4.82278E-09
1477.77515	4.82360E-09
1477.89966	4.82446E-09
1478.02405	4.82536E-09
1478.14856	4.82629E-09
1478.27295	4.82727E-09
1478.39746	4.82828E-09
1478.52197	4.82934E-09
1478.64636	4.83044E-09
1478.77087	4.83158E-09
1478.89526	4.83276E-09
1479.01978	4.83398E-09
1479.14417	4.83525E-09
1479.26868	4.83656E-09
1479.39307	4.83791E-09
1479.51758	4.83930E-09
1479.64197	4.84074E-09
1479.76648	4.84222E-09
1479.89087	4.84375E-09
1480.01538	4.84532E-09
1480.13977	4.84693E-09
1480.26428	4.84860E-09
1480.38879	4.85030E-09
1480.51318	4.85205E-09
1480.63770	4.85384E-09
1480.76209	4.85568E-09
1480.88660	4.85756E-09
1481.01099	4.85949E-09
1481.13550	4.86146E-09
1481.25989	4.86348E-09
1481.38440	4.86553E-09
1481.50879	4.86763E-09
1481.63330	4.86978E-09
1481.75769	4.87196E-09
1481.88220	4.87419E-09
1482.00659	4.87645E-09
1482.13110	4.87877E-09
1482.25562	4.88112E-09
1482.38001	4.88350E-09
1482.50452	4.88594E-09
1482.62891	4.88842E-09
1482.75342	4.89093E-09
1482.87781	4.89348E-09
1483.00232	4.89607E-09
1483.12671	4.89870E-09
1483.25122	4.90136E-09
1483.37561	4.90405E-09
1483.50012	4.90677E-09
1483.62451	4.90953E-09
1483.74902	4.91233E-09
1483.87341	4.91515E-09
1483.99793	4.91800E-09
1484.12244	4.92088E-09
1484.24683	4.92378E-09
1484.37134	4.92670E-09
1484.49573	4.92966E-09
1484.62024	4.93264E-09
1484.74463	4.93564E-09
1484.86914	4.93866E-09
1484.99353	4.94171E-09
1485.11804	4.94478E-09
1485.24243	4.94786E-09
1485.36694	4.95096E-09
1485.49133	4.95408E-09
1485.61585	4.95721E-09
1485.74023	4.96036E-09
1485.86475	4.96352E-09
1485.98926	4.96670E-09
1486.11365	4.96989E-09
1486.23816	4.97308E-09
1486.36255	4.97630E-09
1486.48706	4.97951E-09
1486.61145	4.98274E-09
1486.73596	4.98596E-09
1486.86035	4.98920E-09
1486.98486	4.99244E-09
1487.10925	4.99570E-09
1487.23377	4.99895E-09
1487.35815	5.00221E-09
1487.48267	5.00548E-09
1487.60706	5.00874E-09
1487.73157	5.01201E-09
1487.85608	5.01528E-09
1487.98047	5.01854E-09
1488.10498	5.02182E-09
1488.22937	5.02509E-09
1488.35388	5.02836E-09
1488.47827	5.03164E-09
1488.60278	5.03492E-09
1488.72717	5.03819E-09
1488.85169	5.04148E-09
1488.97607	5.04475E-09
1489.10059	5.04803E-09
1489.22498	5.05132E-09
1489.34949	5.05460E-09
1489.47388	5.05788E-09
1489.59839	5.06116E-09
1489.72290	5.06444E-09
1489.84729	5.06773E-09
1489.97180	5.07103E-09
1490.09619	5.07432E-09
1490.22070	5.07761E-09
1490.34509	5.08092E-09
1490.46960	5.08423E-09
1490.59399	5.08755E-09
1490.71851	5.09086E-09
1490.84290	5.09418E-09
1490.96741	5.09752E-09
1491.09180	5.10086E-09
1491.21631	5.10421E-09
1491.34070	5.10757E-09
1491.46521	5.11094E-09
1491.58972	5.11433E-09
1491.71411	5.11772E-09
1491.83862	5.12113E-09
1491.96301	5.12456E-09
1492.08752	5.12800E-09
1492.21191	5.13146E-09
1492.33643	5.13493E-09
1492.46082	5.13843E-09
1492.58533	5.14194E-09
1492.70972	5.14547E-09
1492.83423	5.14903E-09
1492.95862	5.15261E-09
1493.08313	5.15621E-09
1493.20752	5.15984E-09
1493.33203	5.16349E-09
1493.45654	5.16718E-09
1493.58093	5.17088E-09
1493.70544	5.17463E-09
1493.82983	5.17839E-09
1493.95435	5.18220E-09
1494.07874	5.18604E-09
1494.20325	5.18991E-09
1494.32764	5.19382E-09
1494.45215	5.19776E-09
1494.57654	5.20174E-09
1494.70105	5.20576E-09
1494.82544	5.20982E-09
1494.94995	5.21392E-09
1495.07434	5.21806E-09
1495.19885	5.22224E-09
1495.32336	5.22647E-09
1495.44775	5.23075E-09
1495.57227	5.23506E-09
1495.69666	5.23943E-09
1495.82117	5.24385E-09
1495.94556	5.24831E-09
1496.07007	5.25282E-09
1496.19446	5.25739E-09
1496.31897	5.26201E-09
1496.44336	5.26668E-09
1496.56787	5.27141E-09
1496.69226	5.27619E-09
1496.81677	5.28102E-09
1496.94116	5.28591E-09
1497.06567	5.29087E-09
1497.19006	5.29587E-09
1497.31458	5.30093E-09
1497.43909	5.30605E-09
1497.56348	5.31123E-09
1497.68799	5.31647E-09
1497.81238	5.32178E-09
1497.93689	5.32713E-09
1498.06128	5.33255E-09
1498.18579	5.33804E-09
1498.31018	5.34358E-09
1498.43469	5.34919E-09
1498.55908	5.35485E-09
1498.68359	5.36059E-09
1498.80798	5.36637E-09
1498.93250	5.37223E-09
1499.05689	5.37815E-09
1499.18140	5.38412E-09
1499.30591	5.39016E-09
1499.43030	5.39626E-09
1499.55481	5.40243E-09
1499.67920	5.40864E-09
1499.80371	5.41493E-09
1499.92810	5.42127E-09
1500.05261	5.42768E-09
1500.17700	5.43414E-09
1500.30151	5.44067E-09
1500.42590	5.44725E-09
1500.55042	5.45389E-09
1500.67481	5.46059E-09
1500.79932	5.46735E-09
1500.92371	5.47416E-09
1501.04822	5.48102E-09
1501.17273	5.48795E-09
1501.29712	5.49492E-09
1501.42163	5.50195E-09
1501.54602	5.50903E-09
1501.67053	5.51616E-09
1501.79492	5.52335E-09
1501.91943	5.53059E-09
1502.04382	5.53788E-09
1502.16834	5.54521E-09
1502.29273	5.55259E-09
1502.41724	5.56003E-09
1502.54163	5.56750E-09
1502.66614	5.57503E-09
1502.79053	5.58259E-09
1502.91504	5.59022E-09
1503.03955	5.59788E-09
1503.16394	5.60558E-09
1503.28845	5.61333E-09
1503.41284	5.62112E-09
1503.53735	5.62896E-09
1503.66174	5.63683E-09
1503.78626	5.64475E-09
1503.91065	5.65271E-09
1504.03516	5.66072E-09
1504.15955	5.66876E-09
1504.28406	5.67685E-09
1504.40845	5.68499E-09
1504.53296	5.69315E-09
1504.65735	5.70136E-09
1504.78186	5.70961E-09
1504.90637	5.71791E-09
1505.03076	5.72625E-09
1505.15527	5.73463E-09
1505.27966	5.74307E-09
1505.40418	5.75154E-09
1505.52856	5.76006E-09
1505.65308	5.76862E-09
1505.77747	5.77725E-09
1505.90198	5.78590E-09
1506.02637	5.79462E-09
1506.15088	5.80338E-09
1506.27527	5.81219E-09
1506.39978	5.82107E-09
1506.52417	5.83000E-09
1506.64868	5.83898E-09
1506.77319	5.84803E-09
1506.89758	5.85713E-09
1507.02210	5.86628E-09
1507.14648	5.87552E-09
1507.27100	5.88481E-09
1507.39539	5.89419E-09
1507.51990	5.90362E-09
1507.64429	5.91313E-09
1507.76880	5.92271E-09
1507.89319	5.93236E-09
1508.01770	5.94210E-09
1508.14209	5.95193E-09
1508.26660	5.96184E-09
1508.39099	5.97183E-09
1508.51550	5.98193E-09
1508.64002	5.99210E-09
1508.76440	6.00239E-09
1508.88892	6.01276E-09
1509.01331	6.02325E-09
1509.13782	6.03383E-09
1509.26221	6.04452E-09
1509.38672	6.05533E-09
1509.51111	6.06624E-09
1509.63562	6.07728E-09
1509.76001	6.08845E-09
1509.88452	6.09973E-09
1510.00891	6.11114E-09
1510.13342	6.12269E-09
1510.25781	6.13437E-09
1510.38232	6.14619E-09
1510.50684	6.15815E-09
1510.63123	6.17028E-09
1510.75574	6.18254E-09
1510.88013	6.19496E-09
1511.00464	6.20754E-09
1511.12903	6.22028E-09
1511.25354	6.23319E-09
1511.37793	6.24627E-09
1511.50244	6.25952E-09
1511.62683	6.27296E-09
1511.75134	6.28657E-09
1511.87573	6.30038E-09
1512.00024	6.31437E-09
1512.12463	6.32855E-09
1512.24915	6.34295E-09
1512.37366	6.35753E-09
1512.49805	6.37233E-09
1512.62256	6.38733E-09
1512.74695	6.40256E-09
1512.87146	6.41800E-09
1512.99585	6.43367E-09
1513.12036	6.44957E-09
1513.24475	6.46570E-09
1513.36926	6.48207E-09
1513.49365	6.49868E-09
1513.61816	6.51553E-09
1513.74255	6.53264E-09
1513.86707	6.55000E-09
1513.99146	6.56763E-09
1514.11597	6.58552E-09
1514.24048	6.60368E-09
1514.36487	6.62211E-09
1514.48938	6.64084E-09
1514.61377	6.65984E-09
1514.73828	6.67912E-09
1514.86267	6.69871E-09
1514.98718	6.71859E-09
1515.11157	6.73878E-09
1515.23608	6.75927E-09
1515.36047	6.78009E-09
1515.48499	6.80122E-09
1515.60938	6.82268E-09
1515.73389	6.84447E-09
1515.85828	6.86660E-09
1515.98279	6.88907E-09
1516.10730	6.91190E-09
1516.23169	6.93508E-09
1516.35620	6.95863E-09
1516.48059	6.98254E-09
1516.60510	7.00683E-09
1516.72949	7.03150E-09
1516.85400	7.05656E-09
1516.97839	7.08203E-09
1517.10291	7.10790E-09
1517.22730	7.13418E-09
1517.35181	7.16091E-09
1517.47620	7.18806E-09
1517.60071	7.21567E-09
1517.72510	7.24373E-09
1517.84961	7.27225E-09
1517.97412	7.30128E-09
1518.09851	7.33078E-09
1518.22302	7.36079E-09
1518.34741	7.39133E-09
1518.47192	7.42240E-09
1518.59631	7.45402E-09
1518.72083	7.48622E-09
1518.84522	7.51899E-09
1518.96973	7.55238E-09
1519.09412	7.58639E-09
1519.21863	7.62106E-09
1519.34302	7.65639E-09
1519.46753	7.69240E-09
1519.59192	7.72915E-09
1519.71643	7.76667E-09
1519.84082	7.80494E-09
1519.96533	7.84403E-09
1520.08984	7.88396E-09
1520.21423	7.92478E-09
1520.33875	7.96651E-09
1520.46314	8.00920E-09
1520.58765	8.05287E-09
1520.71204	8.09758E-09
1520.83655	8.14339E-09
1520.96094	8.19034E-09
1521.08545	8.23849E-09
1521.20984	8.28791E-09
1521.33435	8.33863E-09
1521.45874	8.39074E-09
1521.58325	8.44429E-09
1521.70764	8.49938E-09
1521.83215	8.55608E-09
1521.95667	8.61448E-09
1522.08106	8.67465E-09
1522.20557	8.73672E-09
1522.32996	8.80078E-09
1522.45447	8.86692E-09
1522.57886	8.93531E-09
1522.70337	9.00604E-09
1522.82776	9.07925E-09
1522.95227	9.15510E-09
1523.07666	9.23374E-09
1523.20117	9.31536E-09
1523.32556	9.40012E-09
1523.45007	9.48823E-09
1523.57446	9.57992E-09
1523.69898	9.67539E-09
1523.82349	9.77492E-09
1523.94788	9.87876E-09
1524.07239	9.98722E-09
1524.19678	1.01006E-08
1524.32129	1.02193E-08
1524.44568	1.03437E-08
1524.57019	1.04741E-08
1524.69458	1.06111E-08
1524.81909	1.07551E-08
1524.94348	1.09067E-08
1525.06799	1.10665E-08
1525.19238	1.12352E-08
1525.31690	1.14134E-08
1525.44128	1.16021E-08
1525.56580	1.18021E-08
1525.69031	1.20145E-08
1525.81470	1.22404E-08
1525.93921	1.24811E-08
1526.06360	1.27380E-08
1526.18811	1.30127E-08
1526.31250	1.33071E-08
1526.43701	1.36233E-08
1526.56140	1.39637E-08
1526.68591	1.43311E-08
1526.81030	1.47287E-08
1526.93481	1.51603E-08
1527.05920	1.56303E-08
1527.18372	1.61439E-08
1527.30811	1.67076E-08
1527.43262	1.73290E-08
1527.55713	1.80176E-08
1527.68152	1.87856E-08
1527.80603	1.96484E-08
1527.93042	2.06264E-08
1528.05493	2.17474E-08
1528.17932	2.30500E-08
1528.30383	2.45898E-08
1528.42822	2.64501E-08
1528.55273	2.87582E-08
1528.67712	3.17144E-08
1528.80164	3.56294E-08
1528.92603	4.09108E-08
1529.05054	4.74897E-08
1529.17493	5.06853E-08