Wavenumber	NESR 2.85 cm-1
566.48157	1.47036E-07
566.61987	1.45487E-07
566.75818	1.43080E-07
566.89648	1.40022E-07
567.03479	1.36527E-07
567.17310	1.32786E-07
567.31140	1.28948E-07
567.44965	1.25120E-07
567.58795	1.21370E-07
567.72626	1.17742E-07
567.86456	1.14255E-07
568.00287	1.10919E-07
568.14117	1.07733E-07
568.27948	1.04693E-07
568.41779	1.01793E-07
568.55609	9.90242E-08
568.69440	9.63793E-08
568.83270	9.38501E-08
568.97101	9.14288E-08
569.10931	8.91088E-08
569.24762	8.68831E-08
569.38586	8.47463E-08
569.52417	8.26926E-08
569.66248	8.07173E-08
569.80078	7.88158E-08
569.93909	7.69836E-08
570.07739	7.52173E-08
570.21570	7.35129E-08
570.35400	7.18674E-08
570.49231	7.02778E-08
570.63062	6.87411E-08
570.76892	6.72548E-08
570.90723	6.58166E-08
571.04553	6.44240E-08
571.18378	6.30752E-08
571.32208	6.17682E-08
571.46039	6.05011E-08
571.59869	5.92723E-08
571.73700	5.80802E-08
571.87531	5.69233E-08
572.01361	5.58002E-08
572.15192	5.47096E-08
572.29022	5.36502E-08
572.42853	5.26210E-08
572.56683	5.16207E-08
572.70514	5.06484E-08
572.84345	4.97030E-08
572.98175	4.87836E-08
573.12000	4.78894E-08
573.25830	4.70195E-08
573.39661	4.61732E-08
573.53491	4.53495E-08
573.67322	4.45479E-08
573.81152	4.37675E-08
573.94983	4.30078E-08
574.08814	4.22681E-08
574.22644	4.15478E-08
574.36475	4.08463E-08
574.50305	4.01630E-08
574.64136	3.94973E-08
574.77966	3.88488E-08
574.91797	3.82170E-08
575.05621	3.76013E-08
575.19452	3.70012E-08
575.33283	3.64164E-08
575.47113	3.58463E-08
575.60944	3.52905E-08
575.74774	3.47487E-08
575.88605	3.42204E-08
576.02435	3.37053E-08
576.16266	3.32028E-08
576.30096	3.27128E-08
576.43927	3.22348E-08
576.57758	3.17685E-08
576.71588	3.13136E-08
576.85413	3.08697E-08
576.99243	3.04365E-08
577.13074	3.00137E-08
577.26904	2.96010E-08
577.40735	2.91982E-08
577.54565	2.88050E-08
577.68396	2.84209E-08
577.82227	2.80459E-08
577.96057	2.76797E-08
578.09888	2.73220E-08
578.23718	2.69725E-08
578.37549	2.66311E-08
578.51379	2.62974E-08
578.65210	2.59713E-08
578.79034	2.56526E-08
578.92865	2.53411E-08
579.06696	2.50364E-08
579.20526	2.47385E-08
579.34357	2.44472E-08
579.48187	2.41622E-08
579.62018	2.38834E-08
579.75848	2.36107E-08
579.89679	2.33437E-08
580.03510	2.30825E-08
580.17340	2.28267E-08
580.31171	2.25764E-08
580.45001	2.23312E-08
580.58826	2.20910E-08
580.72656	2.18559E-08
580.86487	2.16254E-08
581.00317	2.13996E-08
581.14148	2.11783E-08
581.27979	2.09613E-08
581.41809	2.07487E-08
581.55640	2.05403E-08
581.69470	2.03358E-08
581.83301	2.01352E-08
581.97131	1.99385E-08
582.10962	1.97455E-08
582.24793	1.95560E-08
582.38623	1.93700E-08
582.52448	1.91875E-08
582.66278	1.90082E-08
582.80109	1.88321E-08
582.93939	1.86592E-08
583.07770	1.84893E-08
583.21600	1.83224E-08
583.35431	1.81584E-08
583.49262	1.79972E-08
583.63092	1.78387E-08
583.76923	1.76829E-08
583.90753	1.75297E-08
584.04584	1.73791E-08
584.18414	1.72308E-08
584.32239	1.70850E-08
584.46069	1.69416E-08
584.59900	1.68004E-08
584.73731	1.66614E-08
584.87561	1.65247E-08
585.01392	1.63900E-08
585.15222	1.62575E-08
585.29053	1.61269E-08
585.42883	1.59984E-08
585.56714	1.58717E-08
585.70544	1.57470E-08
585.84375	1.56241E-08
585.98206	1.55030E-08
586.12036	1.53837E-08
586.25861	1.52660E-08
586.39691	1.51501E-08
586.53522	1.50358E-08
586.67352	1.49232E-08
586.81183	1.48121E-08
586.95013	1.47025E-08
587.08844	1.45945E-08
587.22675	1.44880E-08
587.36505	1.43830E-08
587.50336	1.42793E-08
587.64166	1.41771E-08
587.77997	1.40763E-08
587.91827	1.39768E-08
588.05652	1.38786E-08
588.19482	1.37818E-08
588.33313	1.36862E-08
588.47144	1.35919E-08
588.60974	1.34988E-08
588.74805	1.34069E-08
588.88635	1.33162E-08
589.02466	1.32267E-08
589.16296	1.31384E-08
589.30127	1.30512E-08
589.43958	1.29651E-08
589.57788	1.28801E-08
589.71619	1.27962E-08
589.85449	1.27133E-08
589.99274	1.26316E-08
590.13104	1.25508E-08
590.26935	1.24711E-08
590.40765	1.23924E-08
590.54596	1.23147E-08
590.68427	1.22380E-08
590.82257	1.21622E-08
590.96088	1.20873E-08
591.09918	1.20134E-08
591.23749	1.19405E-08
591.37579	1.18684E-08
591.51410	1.17972E-08
591.65241	1.17270E-08
591.79071	1.16576E-08
591.92896	1.15890E-08
592.06726	1.15214E-08
592.20557	1.14545E-08
592.34387	1.13885E-08
592.48218	1.13233E-08
592.62048	1.12589E-08
592.75879	1.11953E-08
592.89710	1.11325E-08
593.03540	1.10705E-08
593.17371	1.10093E-08
593.31201	1.09488E-08
593.45032	1.08891E-08
593.58862	1.08301E-08
593.72687	1.07719E-08
593.86517	1.07143E-08
594.00348	1.06575E-08
594.14179	1.06014E-08
594.28009	1.05460E-08
594.41840	1.04913E-08
594.55670	1.04372E-08
594.69501	1.03839E-08
594.83331	1.03312E-08
594.97162	1.02791E-08
595.10992	1.02277E-08
595.24823	1.01769E-08
595.38654	1.01268E-08
595.52484	1.00773E-08
595.66309	1.00285E-08
595.80139	9.98023E-09
595.93970	9.93259E-09
596.07800	9.88555E-09
596.21631	9.83911E-09
596.35461	9.79326E-09
596.49292	9.74799E-09
596.63123	9.70330E-09
596.76953	9.65917E-09
596.90784	9.61562E-09
597.04614	9.57262E-09
597.18445	9.53020E-09
597.32275	9.48832E-09
597.46100	9.44697E-09
597.59930	9.40617E-09
597.73761	9.36591E-09
597.87592	9.32618E-09
598.01422	9.28698E-09
598.15253	9.24830E-09
598.29083	9.21013E-09
598.42914	9.17249E-09
598.56744	9.13534E-09
598.70575	9.09869E-09
598.84406	9.06255E-09
598.98236	9.02691E-09
599.12067	8.99177E-09
599.25897	8.95711E-09
599.39722	8.92292E-09
599.53552	8.88922E-09
599.67383	8.85600E-09
599.81213	8.82326E-09
599.95044	8.79098E-09
600.08875	8.75916E-09
600.22705	8.72781E-09
600.36536	8.69693E-09
600.50366	8.66649E-09
600.64197	8.63650E-09
600.78027	8.60698E-09
600.91858	8.57789E-09
601.05689	8.54925E-09
601.19513	8.52105E-09
601.33344	8.49329E-09
601.47174	8.46596E-09
601.61005	8.43907E-09
601.74835	8.41261E-09
601.88666	8.38657E-09
602.02496	8.36097E-09
602.16327	8.33577E-09
602.30158	8.31101E-09
602.43988	8.28665E-09
602.57819	8.26271E-09
602.71649	8.23917E-09
602.85480	8.21604E-09
602.99310	8.19331E-09
603.13135	8.17098E-09
603.26965	8.14904E-09
603.40796	8.12750E-09
603.54627	8.10635E-09
603.68457	8.08559E-09
603.82288	8.06521E-09
603.96118	8.04521E-09
604.09949	8.02560E-09
604.23779	8.00635E-09
604.37610	7.98748E-09
604.51440	7.96897E-09
604.65271	7.95082E-09
604.79102	7.93303E-09
604.92932	7.91560E-09
605.06757	7.89852E-09
605.20587	7.88180E-09
605.34418	7.86541E-09
605.48248	7.84937E-09
605.62079	7.83367E-09
605.75909	7.81830E-09
605.89740	7.80327E-09
606.03571	7.78854E-09
606.17401	7.77414E-09
606.31232	7.76005E-09
606.45062	7.74627E-09
606.58893	7.73280E-09
606.72723	7.71964E-09
606.86548	7.70677E-09
607.00378	7.69419E-09
607.14209	7.68190E-09
607.28040	7.66989E-09
607.41870	7.65817E-09
607.55701	7.64671E-09
607.69531	7.63553E-09
607.83362	7.62460E-09
607.97192	7.61394E-09
608.11023	7.60353E-09
608.24854	7.59338E-09
608.38684	7.58346E-09
608.52515	7.57378E-09
608.66345	7.56433E-09
608.80170	7.55512E-09
608.94000	7.54612E-09
609.07831	7.53735E-09
609.21661	7.52879E-09
609.35492	7.52043E-09
609.49323	7.51228E-09
609.63153	7.50433E-09
609.76984	7.49657E-09
609.90814	7.48900E-09
610.04645	7.48161E-09
610.18475	7.47440E-09
610.32306	7.46737E-09
610.46137	7.46050E-09
610.59961	7.45380E-09
610.73792	7.44725E-09
610.87622	7.44086E-09
611.01453	7.43461E-09
611.15283	7.42851E-09
611.29114	7.42256E-09
611.42944	7.41674E-09
611.56775	7.41105E-09
611.70606	7.40549E-09
611.84436	7.40005E-09
611.98267	7.39474E-09
612.12097	7.38955E-09
612.25928	7.38447E-09
612.39758	7.37950E-09
612.53583	7.37462E-09
612.67413	7.36986E-09
612.81244	7.36520E-09
612.95075	7.36063E-09
613.08905	7.35617E-09
613.22736	7.35180E-09
613.36566	7.34752E-09
613.50397	7.34332E-09
613.64227	7.33921E-09
613.78058	7.33518E-09
613.91888	7.33124E-09
614.05719	7.32738E-09
614.19550	7.32358E-09
614.33374	7.31988E-09
614.47205	7.31625E-09
614.61035	7.31270E-09
614.74866	7.30921E-09
614.88696	7.30581E-09
615.02527	7.30247E-09
615.16357	7.29921E-09
615.30188	7.29601E-09
615.44019	7.29290E-09
615.57849	7.28985E-09
615.71680	7.28688E-09
615.85510	7.28398E-09
615.99341	7.28116E-09
616.13171	7.27841E-09
616.26996	7.27573E-09
616.40826	7.27314E-09
616.54657	7.27061E-09
616.68488	7.26817E-09
616.82318	7.26581E-09
616.96149	7.26354E-09
617.09979	7.26134E-09
617.23810	7.25923E-09
617.37640	7.25720E-09
617.51471	7.25527E-09
617.65302	7.25342E-09
617.79132	7.25166E-09
617.92963	7.24999E-09
618.06787	7.24842E-09
618.20618	7.24694E-09
618.34448	7.24555E-09
618.48279	7.24429E-09
618.62109	7.24312E-09
618.75940	7.24205E-09
618.89771	7.24110E-09
619.03601	7.24025E-09
619.17432	7.23950E-09
619.31262	7.23887E-09
619.45093	7.23834E-09
619.58923	7.23793E-09
619.72754	7.23764E-09
619.86585	7.23746E-09
620.00409	7.23739E-09
620.14240	7.23745E-09
620.28070	7.23763E-09
620.41901	7.23792E-09
620.55731	7.23834E-09
620.69562	7.23888E-09
620.83392	7.23954E-09
620.97223	7.24034E-09
621.11054	7.24125E-09
621.24884	7.24229E-09
621.38715	7.24346E-09
621.52545	7.24475E-09
621.66376	7.24617E-09
621.80206	7.24772E-09
621.94031	7.24940E-09
622.07861	7.25120E-09
622.21692	7.25312E-09
622.35523	7.25517E-09
622.49353	7.25734E-09
622.63184	7.25963E-09
622.77014	7.26205E-09
622.90845	7.26458E-09
623.04675	7.26723E-09
623.18506	7.27000E-09
623.32336	7.27288E-09
623.46167	7.27587E-09
623.59998	7.27898E-09
623.73822	7.28219E-09
623.87653	7.28551E-09
624.01483	7.28894E-09
624.15314	7.29246E-09
624.29144	7.29608E-09
624.42975	7.29979E-09
624.56805	7.30360E-09
624.70636	7.30750E-09
624.84467	7.31147E-09
624.98297	7.31553E-09
625.12128	7.31967E-09
625.25958	7.32388E-09
625.39789	7.32817E-09
625.53619	7.33252E-09
625.67444	7.33693E-09
625.81274	7.34139E-09
625.95105	7.34591E-09
626.08936	7.35048E-09
626.22766	7.35509E-09
626.36597	7.35973E-09
626.50427	7.36442E-09
626.64258	7.36913E-09
626.78088	7.37386E-09
626.91919	7.37861E-09
627.05750	7.38338E-09
627.19580	7.38816E-09
627.33411	7.39295E-09
627.47235	7.39774E-09
627.61066	7.40254E-09
627.74896	7.40732E-09
627.88727	7.41210E-09
628.02557	7.41686E-09
628.16388	7.42160E-09
628.30219	7.42631E-09
628.44049	7.43100E-09
628.57880	7.43565E-09
628.71710	7.44027E-09
628.85541	7.44484E-09
628.99371	7.44938E-09
629.13202	7.45386E-09
629.27033	7.45829E-09
629.40857	7.46268E-09
629.54688	7.46700E-09
629.68518	7.47125E-09
629.82349	7.47545E-09
629.96179	7.47957E-09
630.10010	7.48364E-09
630.23840	7.48762E-09
630.37671	7.49153E-09
630.51502	7.49536E-09
630.65332	7.49911E-09
630.79163	7.50278E-09
630.92993	7.50638E-09
631.06824	7.50989E-09
631.20648	7.51331E-09
631.34479	7.51666E-09
631.48309	7.51993E-09
631.62140	7.52310E-09
631.75971	7.52619E-09
631.89801	7.52920E-09
632.03632	7.53212E-09
632.17462	7.53497E-09
632.31293	7.53773E-09
632.45123	7.54041E-09
632.58954	7.54301E-09
632.72784	7.54554E-09
632.86615	7.54799E-09
633.00446	7.55036E-09
633.14270	7.55266E-09
633.28101	7.55489E-09
633.41931	7.55705E-09
633.55762	7.55914E-09
633.69592	7.56117E-09
633.83423	7.56315E-09
633.97253	7.56507E-09
634.11084	7.56692E-09
634.24915	7.56872E-09
634.38745	7.57048E-09
634.52576	7.57219E-09
634.66406	7.57386E-09
634.80237	7.57549E-09
634.94067	7.57708E-09
635.07892	7.57865E-09
635.21722	7.58019E-09
635.35553	7.58171E-09
635.49384	7.58321E-09
635.63214	7.58469E-09
635.77045	7.58615E-09
635.90875	7.58760E-09
636.04706	7.58905E-09
636.18536	7.59050E-09
636.32367	7.59195E-09
636.46198	7.59340E-09
636.60028	7.59487E-09
636.73859	7.59635E-09
636.87683	7.59784E-09
637.01514	7.59934E-09
637.15344	7.60086E-09
637.29175	7.60242E-09
637.43005	7.60400E-09
637.56836	7.60561E-09
637.70667	7.60725E-09
637.84497	7.60893E-09
637.98328	7.61064E-09
638.12158	7.61240E-09
638.25989	7.61420E-09
638.39819	7.61605E-09
638.53650	7.61795E-09
638.67481	7.61990E-09
638.81305	7.62189E-09
638.95136	7.62395E-09
639.08966	7.62606E-09
639.22797	7.62822E-09
639.36627	7.63044E-09
639.50458	7.63271E-09
639.64288	7.63504E-09
639.78119	7.63743E-09
639.91950	7.63988E-09
640.05780	7.64238E-09
640.19611	7.64495E-09
640.33441	7.64756E-09
640.47272	7.65025E-09
640.61096	7.65298E-09
640.74927	7.65577E-09
640.88757	7.65861E-09
641.02588	7.66152E-09
641.16419	7.66448E-09
641.30249	7.66749E-09
641.44080	7.67056E-09
641.57910	7.67367E-09
641.71741	7.67683E-09
641.85571	7.68004E-09
641.99402	7.68329E-09
642.13232	7.68659E-09
642.27063	7.68992E-09
642.40894	7.69329E-09
642.54718	7.69669E-09
642.68549	7.70013E-09
642.82379	7.70360E-09
642.96210	7.70708E-09
643.10040	7.71060E-09
643.23871	7.71414E-09
643.37701	7.71770E-09
643.51532	7.72127E-09
643.65363	7.72486E-09
643.79193	7.72845E-09
643.93024	7.73205E-09
644.06854	7.73566E-09
644.20685	7.73927E-09
644.34509	7.74287E-09
644.48340	7.74647E-09
644.62170	7.75007E-09
644.76001	7.75365E-09
644.89832	7.75723E-09
645.03662	7.76078E-09
645.17493	7.76431E-09
645.31323	7.76783E-09
645.45154	7.77132E-09
645.58984	7.77478E-09
645.72815	7.77821E-09
645.86646	7.78160E-09
646.00476	7.78496E-09
646.14307	7.78828E-09
646.28131	7.79156E-09
646.41962	7.79480E-09
646.55792	7.79800E-09
646.69623	7.80115E-09
646.83453	7.80425E-09
646.97284	7.80731E-09
647.11115	7.81031E-09
647.24945	7.81325E-09
647.38776	7.81615E-09
647.52606	7.81899E-09
647.66437	7.82176E-09
647.80267	7.82449E-09
647.94098	7.82716E-09
648.07922	7.82976E-09
648.21753	7.83230E-09
648.35584	7.83478E-09
648.49414	7.83720E-09
648.63245	7.83956E-09
648.77075	7.84186E-09
648.90906	7.84410E-09
649.04736	7.84627E-09
649.18567	7.84837E-09
649.32398	7.85042E-09
649.46228	7.85239E-09
649.60059	7.85431E-09
649.73889	7.85617E-09
649.87720	7.85797E-09
650.01544	7.85971E-09
650.15375	7.86140E-09
650.29205	7.86302E-09
650.43036	7.86459E-09
650.56867	7.86610E-09
650.70697	7.86756E-09
650.84528	7.86896E-09
650.98358	7.87030E-09
651.12189	7.87159E-09
651.26019	7.87283E-09
651.39850	7.87402E-09
651.53680	7.87516E-09
651.67511	7.87625E-09
651.81342	7.87729E-09
651.95166	7.87828E-09
652.08997	7.87923E-09
652.22827	7.88014E-09
652.36658	7.88100E-09
652.50488	7.88182E-09
652.64319	7.88260E-09
652.78149	7.88333E-09
652.91980	7.88403E-09
653.05811	7.88468E-09
653.19641	7.88530E-09
653.33472	7.88589E-09
653.47302	7.88643E-09
653.61133	7.88694E-09
653.74957	7.88742E-09
653.88788	7.88786E-09
654.02618	7.88827E-09
654.16449	7.88864E-09
654.30280	7.88897E-09
654.44110	7.88927E-09
654.57941	7.88954E-09
654.71771	7.88977E-09
654.85602	7.88996E-09
654.99432	7.89012E-09
655.13263	7.89024E-09
655.27094	7.89033E-09
655.40924	7.89038E-09
655.54755	7.89039E-09
655.68579	7.89037E-09
655.82410	7.89032E-09
655.96240	7.89023E-09
656.10071	7.89009E-09
656.23901	7.88992E-09
656.37732	7.88970E-09
656.51563	7.88944E-09
656.65393	7.88915E-09
656.79224	7.88880E-09
656.93054	7.88841E-09
657.06885	7.88798E-09
657.20715	7.88750E-09
657.34546	7.88696E-09
657.48370	7.88638E-09
657.62201	7.88574E-09
657.76032	7.88505E-09
657.89862	7.88431E-09
658.03693	7.88351E-09
658.17523	7.88266E-09
658.31354	7.88174E-09
658.45184	7.88076E-09
658.59015	7.87972E-09
658.72846	7.87862E-09
658.86676	7.87744E-09
659.00507	7.87621E-09
659.14337	7.87492E-09
659.28168	7.87355E-09
659.41992	7.87212E-09
659.55823	7.87062E-09
659.69653	7.86905E-09
659.83484	7.86741E-09
659.97315	7.86569E-09
660.11145	7.86389E-09
660.24976	7.86203E-09
660.38806	7.86008E-09
660.52637	7.85807E-09
660.66467	7.85598E-09
660.80298	7.85382E-09
660.94128	7.85158E-09
661.07959	7.84925E-09
661.21783	7.84686E-09
661.35614	7.84439E-09
661.49445	7.84184E-09
661.63275	7.83921E-09
661.77106	7.83652E-09
661.90936	7.83375E-09
662.04767	7.83091E-09
662.18597	7.82799E-09
662.32428	7.82501E-09
662.46259	7.82196E-09
662.60089	7.81884E-09
662.73920	7.81566E-09
662.87750	7.81241E-09
663.01581	7.80910E-09
663.15405	7.80573E-09
663.29236	7.80230E-09
663.43066	7.79881E-09
663.56897	7.79527E-09
663.70728	7.79167E-09
663.84558	7.78802E-09
663.98389	7.78432E-09
664.12219	7.78059E-09
664.26050	7.77680E-09
664.39880	7.77297E-09
664.53711	7.76910E-09
664.67542	7.76521E-09
664.81372	7.76128E-09
664.95203	7.75733E-09
665.09027	7.75334E-09
665.22858	7.74934E-09
665.36688	7.74531E-09
665.50519	7.74127E-09
665.64349	7.73721E-09
665.78180	7.73314E-09
665.92011	7.72907E-09
666.05841	7.72498E-09
666.19672	7.72090E-09
666.33502	7.71681E-09
666.47333	7.71273E-09
666.61163	7.70866E-09
666.74994	7.70459E-09
666.88818	7.70054E-09
667.02649	7.69651E-09
667.16480	7.69249E-09
667.30310	7.68849E-09
667.44141	7.68452E-09
667.57971	7.68057E-09
667.71802	7.67665E-09
667.85632	7.67276E-09
667.99463	7.66891E-09
668.13294	7.66508E-09
668.27124	7.66130E-09
668.40955	7.65756E-09
668.54785	7.65387E-09
668.68616	7.65021E-09
668.82440	7.64659E-09
668.96271	7.64303E-09
669.10101	7.63951E-09
669.23932	7.63604E-09
669.37763	7.63262E-09
669.51593	7.62924E-09
669.65424	7.62592E-09
669.79254	7.62264E-09
669.93085	7.61942E-09
670.06915	7.61626E-09
670.20746	7.61315E-09
670.34576	7.61009E-09
670.48407	7.60708E-09
670.62231	7.60413E-09
670.76062	7.60123E-09
670.89893	7.59837E-09
671.03723	7.59557E-09
671.17554	7.59282E-09
671.31384	7.59012E-09
671.45215	7.58747E-09
671.59045	7.58486E-09
671.72876	7.58229E-09
671.86707	7.57977E-09
672.00537	7.57730E-09
672.14368	7.57486E-09
672.28198	7.57246E-09
672.42029	7.57010E-09
672.55853	7.56778E-09
672.69684	7.56548E-09
672.83514	7.56322E-09
672.97345	7.56099E-09
673.11176	7.55878E-09
673.25006	7.55660E-09
673.38837	7.55444E-09
673.52667	7.55230E-09
673.66498	7.55018E-09
673.80328	7.54806E-09
673.94159	7.54597E-09
674.07990	7.54389E-09
674.21820	7.54180E-09
674.35645	7.53973E-09
674.49475	7.53766E-09
674.63306	7.53559E-09
674.77136	7.53351E-09
674.90967	7.53143E-09
675.04797	7.52934E-09
675.18628	7.52724E-09
675.32459	7.52513E-09
675.46289	7.52300E-09
675.60120	7.52084E-09
675.73950	7.51867E-09
675.87781	7.51648E-09
676.01611	7.51425E-09
676.15442	7.51200E-09
676.29266	7.50972E-09
676.43097	7.50740E-09
676.56928	7.50505E-09
676.70758	7.50267E-09
676.84589	7.50025E-09
676.98419	7.49780E-09
677.12250	7.49530E-09
677.26080	7.49276E-09
677.39911	7.49018E-09
677.53742	7.48755E-09
677.67572	7.48488E-09
677.81403	7.48216E-09
677.95233	7.47940E-09
678.09058	7.47658E-09
678.22888	7.47372E-09
678.36719	7.47081E-09
678.50549	7.46785E-09
678.64380	7.46484E-09
678.78210	7.46179E-09
678.92041	7.45869E-09
679.05872	7.45553E-09
679.19702	7.45233E-09
679.33533	7.44909E-09
679.47363	7.44580E-09
679.61194	7.44247E-09
679.75024	7.43908E-09
679.88855	7.43566E-09
680.02679	7.43219E-09
680.16510	7.42868E-09
680.30341	7.42514E-09
680.44171	7.42155E-09
680.58002	7.41792E-09
680.71832	7.41426E-09
680.85663	7.41057E-09
680.99493	7.40684E-09
681.13324	7.40309E-09
681.27155	7.39930E-09
681.40985	7.39549E-09
681.54816	7.39166E-09
681.68646	7.38781E-09
681.82477	7.38393E-09
681.96301	7.38004E-09
682.10132	7.37613E-09
682.23962	7.37221E-09
682.37793	7.36828E-09
682.51624	7.36434E-09
682.65454	7.36040E-09
682.79285	7.35645E-09
682.93115	7.35249E-09
683.06946	7.34854E-09
683.20776	7.34460E-09
683.34607	7.34066E-09
683.48438	7.33674E-09
683.62268	7.33281E-09
683.76093	7.32890E-09
683.89923	7.32501E-09
684.03754	7.32113E-09
684.17584	7.31726E-09
684.31415	7.31341E-09
684.45245	7.30959E-09
684.59076	7.30579E-09
684.72907	7.30202E-09
684.86737	7.29827E-09
685.00568	7.29455E-09
685.14398	7.29085E-09
685.28229	7.28719E-09
685.42059	7.28356E-09
685.55890	7.27996E-09
685.69714	7.27641E-09
685.83545	7.27288E-09
685.97376	7.26939E-09
686.11206	7.26595E-09
686.25037	7.26254E-09
686.38867	7.25917E-09
686.52698	7.25585E-09
686.66528	7.25256E-09
686.80359	7.24932E-09
686.94190	7.24612E-09
687.08020	7.24296E-09
687.21851	7.23985E-09
687.35681	7.23677E-09
687.49506	7.23374E-09
687.63336	7.23076E-09
687.77167	7.22781E-09
687.90997	7.22491E-09
688.04828	7.22204E-09
688.18658	7.21922E-09
688.32489	7.21644E-09
688.46320	7.21371E-09
688.60150	7.21101E-09
688.73981	7.20834E-09
688.87811	7.20572E-09
689.01642	7.20314E-09
689.15472	7.20059E-09
689.29303	7.19808E-09
689.43127	7.19562E-09
689.56958	7.19318E-09
689.70789	7.19077E-09
689.84619	7.18840E-09
689.98450	7.18606E-09
690.12280	7.18376E-09
690.26111	7.18148E-09
690.39941	7.17922E-09
690.53772	7.17700E-09
690.67603	7.17481E-09
690.81433	7.17264E-09
690.95264	7.17049E-09
691.09094	7.16837E-09
691.22919	7.16627E-09
691.36749	7.16419E-09
691.50580	7.16213E-09
691.64410	7.16010E-09
691.78241	7.15808E-09
691.92072	7.15608E-09
692.05902	7.15410E-09
692.19733	7.15214E-09
692.33563	7.15019E-09
692.47394	7.14826E-09
692.61224	7.14635E-09
692.75055	7.14445E-09
692.88886	7.14256E-09
693.02716	7.14069E-09
693.16541	7.13883E-09
693.30371	7.13698E-09
693.44202	7.13514E-09
693.58032	7.13333E-09
693.71863	7.13151E-09
693.85693	7.12972E-09
693.99524	7.12793E-09
694.13355	7.12616E-09
694.27185	7.12440E-09
694.41016	7.12265E-09
694.54846	7.12092E-09
694.68677	7.11920E-09
694.82507	7.11750E-09
694.96338	7.11581E-09
695.10162	7.11413E-09
695.23993	7.11247E-09
695.37824	7.11083E-09
695.51654	7.10921E-09
695.65485	7.10760E-09
695.79315	7.10601E-09
695.93146	7.10444E-09
696.06976	7.10289E-09
696.20807	7.10136E-09
696.34638	7.09986E-09
696.48468	7.09838E-09
696.62299	7.09692E-09
696.76129	7.09549E-09
696.89954	7.09407E-09
697.03784	7.09269E-09
697.17615	7.09134E-09
697.31445	7.09003E-09
697.45276	7.08874E-09
697.59106	7.08748E-09
697.72937	7.08626E-09
697.86768	7.08508E-09
698.00598	7.08393E-09
698.14429	7.08282E-09
698.28259	7.08175E-09
698.42090	7.08073E-09
698.55920	7.07974E-09
698.69751	7.07880E-09
698.83575	7.07791E-09
698.97406	7.07706E-09
699.11237	7.07625E-09
699.25067	7.07549E-09
699.38898	7.07478E-09
699.52728	7.07412E-09
699.66559	7.07350E-09
699.80389	7.07294E-09
699.94220	7.07243E-09
700.08051	7.07198E-09
700.21881	7.07158E-09
700.35712	7.07124E-09
700.49542	7.07095E-09
700.63367	7.07072E-09
700.77197	7.07054E-09
700.91028	7.07042E-09
701.04858	7.07036E-09
701.18689	7.07036E-09
701.32520	7.07041E-09
701.46350	7.07052E-09
701.60181	7.07069E-09
701.74011	7.07092E-09
701.87842	7.07120E-09
702.01672	7.07155E-09
702.15503	7.07195E-09
702.29334	7.07241E-09
702.43164	7.07293E-09
702.56989	7.07350E-09
702.70819	7.07413E-09
702.84650	7.07483E-09
702.98480	7.07557E-09
703.12311	7.07637E-09
703.26141	7.07723E-09
703.39972	7.07814E-09
703.53803	7.07911E-09
703.67633	7.08013E-09
703.81464	7.08121E-09
703.95294	7.08234E-09
704.09125	7.08352E-09
704.22955	7.08475E-09
704.36780	7.08603E-09
704.50610	7.08736E-09
704.64441	7.08875E-09
704.78272	7.09018E-09
704.92102	7.09165E-09
705.05933	7.09317E-09
705.19763	7.09473E-09
705.33594	7.09634E-09
705.47424	7.09798E-09
705.61255	7.09967E-09
705.75085	7.10140E-09
705.88916	7.10317E-09
706.02747	7.10498E-09
706.16577	7.10682E-09
706.30402	7.10869E-09
706.44232	7.11060E-09
706.58063	7.11256E-09
706.71893	7.11454E-09
706.85724	7.11656E-09
706.99554	7.11861E-09
707.13385	7.12069E-09
707.27216	7.12280E-09
707.41046	7.12494E-09
707.54877	7.12711E-09
707.68707	7.12930E-09
707.82538	7.13153E-09
707.96368	7.13378E-09
708.10193	7.13605E-09
708.24023	7.13836E-09
708.37854	7.14069E-09
708.51685	7.14304E-09
708.65515	7.14542E-09
708.79346	7.14782E-09
708.93176	7.15026E-09
709.07007	7.15271E-09
709.20837	7.15519E-09
709.34668	7.15770E-09
709.48499	7.16022E-09
709.62329	7.16278E-09
709.76160	7.16536E-09
709.89990	7.16798E-09
710.03815	7.17061E-09
710.17645	7.17327E-09
710.31476	7.17597E-09
710.45306	7.17868E-09
710.59137	7.18143E-09
710.72968	7.18420E-09
710.86798	7.18701E-09
711.00629	7.18984E-09
711.14459	7.19271E-09
711.28290	7.19562E-09
711.42120	7.19855E-09
711.55951	7.20152E-09
711.69782	7.20452E-09
711.83612	7.20756E-09
711.97437	7.21064E-09
712.11267	7.21375E-09
712.25098	7.21690E-09
712.38928	7.22010E-09
712.52759	7.22333E-09
712.66589	7.22661E-09
712.80420	7.22992E-09
712.94251	7.23329E-09
713.08081	7.23669E-09
713.21912	7.24014E-09
713.35742	7.24365E-09
713.49573	7.24719E-09
713.63403	7.25079E-09
713.77228	7.25443E-09
713.91058	7.25813E-09
714.04889	7.26187E-09
714.18720	7.26567E-09
714.32550	7.26953E-09
714.46381	7.27343E-09
714.60211	7.27739E-09
714.74042	7.28141E-09
714.87872	7.28548E-09
715.01703	7.28961E-09
715.15533	7.29380E-09
715.29364	7.29804E-09
715.43195	7.30234E-09
715.57025	7.30670E-09
715.70850	7.31111E-09
715.84680	7.31559E-09
715.98511	7.32012E-09
716.12341	7.32470E-09
716.26172	7.32935E-09
716.40002	7.33405E-09
716.53833	7.33881E-09
716.67664	7.34362E-09
716.81494	7.34849E-09
716.95325	7.35342E-09
717.09155	7.35841E-09
717.22986	7.36344E-09
717.36816	7.36853E-09
717.50641	7.37368E-09
717.64471	7.37887E-09
717.78302	7.38412E-09
717.92133	7.38942E-09
718.05963	7.39477E-09
718.19794	7.40017E-09
718.33624	7.40561E-09
718.47455	7.41110E-09
718.61285	7.41663E-09
718.75116	7.42221E-09
718.88947	7.42782E-09
719.02777	7.43348E-09
719.16608	7.43917E-09
719.30438	7.44490E-09
719.44263	7.45067E-09
719.58093	7.45646E-09
719.71924	7.46229E-09
719.85754	7.46814E-09
719.99585	7.47403E-09
720.13416	7.47994E-09
720.27246	7.48587E-09
720.41077	7.49182E-09
720.54907	7.49779E-09
720.68738	7.50378E-09
720.82568	7.50979E-09
720.96399	7.51581E-09
721.10230	7.52183E-09
721.24054	7.52787E-09
721.37885	7.53392E-09
721.51715	7.53998E-09
721.65546	7.54604E-09
721.79376	7.55210E-09
721.93207	7.55817E-09
722.07037	7.56423E-09
722.20868	7.57030E-09
722.34699	7.57635E-09
722.48529	7.58241E-09
722.62360	7.58846E-09
722.76190	7.59450E-09
722.90021	7.60053E-09
723.03851	7.60655E-09
723.17676	7.61255E-09
723.31506	7.61855E-09
723.45337	7.62453E-09
723.59168	7.63049E-09
723.72998	7.63645E-09
723.86829	7.64238E-09
724.00659	7.64829E-09
724.14490	7.65419E-09
724.28320	7.66006E-09
724.42151	7.66592E-09
724.55981	7.67176E-09
724.69812	7.67758E-09
724.83643	7.68337E-09
724.97473	7.68915E-09
725.11298	7.69490E-09
725.25128	7.70064E-09
725.38959	7.70635E-09
725.52789	7.71205E-09
725.66620	7.71772E-09
725.80450	7.72338E-09
725.94281	7.72901E-09
726.08112	7.73463E-09
726.21942	7.74022E-09
726.35773	7.74581E-09
726.49603	7.75138E-09
726.63434	7.75693E-09
726.77264	7.76246E-09
726.91089	7.76799E-09
727.04919	7.77350E-09
727.18750	7.77899E-09
727.32581	7.78449E-09
727.46411	7.78997E-09
727.60242	7.79544E-09
727.74072	7.80091E-09
727.87903	7.80637E-09
728.01733	7.81183E-09
728.15564	7.81729E-09
728.29395	7.82274E-09
728.43225	7.82820E-09
728.57056	7.83366E-09
728.70886	7.83913E-09
728.84711	7.84460E-09
728.98541	7.85007E-09
729.12372	7.85555E-09
729.26202	7.86104E-09
729.40033	7.86654E-09
729.53864	7.87206E-09
729.67694	7.87759E-09
729.81525	7.88314E-09
729.95355	7.88870E-09
730.09186	7.89429E-09
730.23016	7.89989E-09
730.36847	7.90551E-09
730.50678	7.91116E-09
730.64502	7.91682E-09
730.78333	7.92251E-09
730.92163	7.92822E-09
731.05994	7.93396E-09
731.19824	7.93972E-09
731.33655	7.94551E-09
731.47485	7.95132E-09
731.61316	7.95718E-09
731.75147	7.96305E-09
731.88977	7.96895E-09
732.02808	7.97488E-09
732.16638	7.98084E-09
732.30469	7.98683E-09
732.44299	7.99285E-09
732.58124	7.99889E-09
732.71954	8.00497E-09
732.85785	8.01107E-09
732.99616	8.01720E-09
733.13446	8.02336E-09
733.27277	8.02955E-09
733.41107	8.03577E-09
733.54938	8.04202E-09
733.68768	8.04829E-09
733.82599	8.05459E-09
733.96429	8.06091E-09
734.10260	8.06727E-09
734.24091	8.07364E-09
734.37915	8.08004E-09
734.51746	8.08646E-09
734.65576	8.09290E-09
734.79407	8.09936E-09
734.93237	8.10584E-09
735.07068	8.11234E-09
735.20898	8.11885E-09
735.34729	8.12537E-09
735.48560	8.13192E-09
735.62390	8.13848E-09
735.76221	8.14504E-09
735.90051	8.15162E-09
736.03882	8.15820E-09
736.17712	8.16479E-09
736.31537	8.17138E-09
736.45367	8.17798E-09
736.59198	8.18458E-09
736.73029	8.19118E-09
736.86859	8.19779E-09
737.00690	8.20439E-09
737.14520	8.21100E-09
737.28351	8.21760E-09
737.42181	8.22420E-09
737.56012	8.23079E-09
737.69843	8.23738E-09
737.83673	8.24395E-09
737.97504	8.25053E-09
738.11334	8.25708E-09
738.25159	8.26364E-09
738.38989	8.27018E-09
738.52820	8.27672E-09
738.66650	8.28325E-09
738.80481	8.28976E-09
738.94312	8.29626E-09
739.08142	8.30274E-09
739.21973	8.30922E-09
739.35803	8.31569E-09
739.49634	8.32214E-09
739.63464	8.32859E-09
739.77295	8.33502E-09
739.91126	8.34144E-09
740.04950	8.34785E-09
740.18781	8.35425E-09
740.32611	8.36065E-09
740.46442	8.36702E-09
740.60272	8.37340E-09
740.74103	8.37977E-09
740.87933	8.38614E-09
741.01764	8.39249E-09
741.15595	8.39885E-09
741.29425	8.40519E-09
741.43256	8.41154E-09
741.57086	8.41788E-09
741.70917	8.42423E-09
741.84747	8.43058E-09
741.98572	8.43694E-09
742.12402	8.44329E-09
742.26233	8.44966E-09
742.40064	8.45603E-09
742.53894	8.46241E-09
742.67725	8.46879E-09
742.81555	8.47519E-09
742.95386	8.48161E-09
743.09216	8.48805E-09
743.23047	8.49449E-09
743.36877	8.50097E-09
743.50708	8.50746E-09
743.64539	8.51398E-09
743.78363	8.52051E-09
743.92194	8.52708E-09
744.06024	8.53367E-09
744.19855	8.54029E-09
744.33685	8.54694E-09
744.47516	8.55362E-09
744.61346	8.56033E-09
744.75177	8.56707E-09
744.89008	8.57385E-09
745.02838	8.58066E-09
745.16669	8.58750E-09
745.30499	8.59438E-09
745.44330	8.60130E-09
745.58160	8.60826E-09
745.71985	8.61526E-09
745.85815	8.62229E-09
745.99646	8.62937E-09
746.13477	8.63648E-09
746.27307	8.64364E-09
746.41138	8.65083E-09
746.54968	8.65806E-09
746.68799	8.66532E-09
746.82629	8.67262E-09
746.96460	8.67996E-09
747.10291	8.68734E-09
747.24121	8.69475E-09
747.37952	8.70219E-09
747.51776	8.70966E-09
747.65607	8.71716E-09
747.79437	8.72470E-09
747.93268	8.73227E-09
748.07098	8.73986E-09
748.20929	8.74747E-09
748.34760	8.75510E-09
748.48590	8.76275E-09
748.62421	8.77042E-09
748.76251	8.77810E-09
748.90082	8.78580E-09
749.03912	8.79351E-09
749.17743	8.80122E-09
749.31574	8.80892E-09
749.45398	8.81664E-09
749.59229	8.82435E-09
749.73059	8.83205E-09
749.86890	8.83973E-09
750.00720	8.84740E-09
750.14551	8.85505E-09
750.28381	8.86268E-09
750.42212	8.87029E-09
750.56043	8.87786E-09
750.69873	8.88540E-09
750.83704	8.89291E-09
750.97534	8.90037E-09
751.11365	8.90779E-09
751.25189	8.91516E-09
751.39020	8.92247E-09
751.52850	8.92974E-09
751.66681	8.93694E-09
751.80512	8.94407E-09
751.94342	8.95114E-09
752.08173	8.95814E-09
752.22003	8.96506E-09
752.35834	8.97190E-09
752.49664	8.97866E-09
752.63495	8.98533E-09
752.77325	8.99192E-09
752.91156	8.99842E-09
753.04987	9.00482E-09
753.18811	9.01112E-09
753.32642	9.01733E-09
753.46472	9.02342E-09
753.60303	9.02941E-09
753.74133	9.03529E-09
753.87964	9.04107E-09
754.01794	9.04673E-09
754.15625	9.05228E-09
754.29456	9.05772E-09
754.43286	9.06304E-09
754.57117	9.06824E-09
754.70947	9.07332E-09
754.84778	9.07829E-09
754.98608	9.08313E-09
755.12433	9.08786E-09
755.26263	9.09246E-09
755.40094	9.09695E-09
755.53925	9.10132E-09
755.67755	9.10557E-09
755.81586	9.10970E-09
755.95416	9.11371E-09
756.09247	9.11761E-09
756.23077	9.12139E-09
756.36908	9.12506E-09
756.50739	9.12862E-09
756.64569	9.13208E-09
756.78400	9.13542E-09
756.92224	9.13865E-09
757.06055	9.14179E-09
757.19885	9.14483E-09
757.33716	9.14776E-09
757.47546	9.15061E-09
757.61377	9.15337E-09
757.75208	9.15603E-09
757.89038	9.15863E-09
758.02869	9.16113E-09
758.16699	9.16357E-09
758.30530	9.16593E-09
758.44360	9.16822E-09
758.58191	9.17045E-09
758.72022	9.17262E-09
758.85846	9.17473E-09
758.99677	9.17679E-09
759.13507	9.17880E-09
759.27338	9.18077E-09
759.41168	9.18270E-09
759.54999	9.18459E-09
759.68829	9.18645E-09
759.82660	9.18829E-09
759.96491	9.19010E-09
760.10321	9.19189E-09
760.24152	9.19367E-09
760.37982	9.19544E-09
760.51813	9.19720E-09
760.65637	9.19896E-09
760.79468	9.20072E-09
760.93298	9.20249E-09
761.07129	9.20426E-09
761.20960	9.20604E-09
761.34790	9.20784E-09
761.48621	9.20966E-09
761.62451	9.21149E-09
761.76282	9.21334E-09
761.90112	9.21522E-09
762.03943	9.21713E-09
762.17773	9.21906E-09
762.31604	9.22103E-09
762.45435	9.22303E-09
762.59259	9.22507E-09
762.73090	9.22714E-09
762.86920	9.22925E-09
763.00751	9.23140E-09
763.14581	9.23359E-09
763.28412	9.23582E-09
763.42242	9.23809E-09
763.56073	9.24040E-09
763.69904	9.24274E-09
763.83734	9.24513E-09
763.97565	9.24757E-09
764.11395	9.25003E-09
764.25226	9.25254E-09
764.39050	9.25508E-09
764.52881	9.25766E-09
764.66711	9.26028E-09
764.80542	9.26292E-09
764.94373	9.26560E-09
765.08203	9.26831E-09
765.22034	9.27104E-09
765.35864	9.27380E-09
765.49695	9.27658E-09
765.63525	9.27938E-09
765.77356	9.28219E-09
765.91187	9.28502E-09
766.05017	9.28786E-09
766.18848	9.29070E-09
766.32672	9.29355E-09
766.46503	9.29640E-09
766.60333	9.29925E-09
766.74164	9.30208E-09
766.87994	9.30490E-09
767.01825	9.30771E-09
767.15656	9.31050E-09
767.29486	9.31327E-09
767.43317	9.31601E-09
767.57147	9.31873E-09
767.70978	9.32141E-09
767.84808	9.32406E-09
767.98639	9.32666E-09
768.12470	9.32922E-09
768.26294	9.33172E-09
768.40125	9.33418E-09
768.53955	9.33657E-09
768.67786	9.33891E-09
768.81616	9.34119E-09
768.95447	9.34339E-09
769.09277	9.34553E-09
769.23108	9.34760E-09
769.36939	9.34959E-09
769.50769	9.35150E-09
769.64600	9.35332E-09
769.78430	9.35507E-09
769.92261	9.35673E-09
770.06085	9.35831E-09
770.19916	9.35979E-09
770.33746	9.36118E-09
770.47577	9.36247E-09
770.61408	9.36368E-09
770.75238	9.36478E-09
770.89069	9.36579E-09
771.02899	9.36671E-09
771.16730	9.36752E-09
771.30560	9.36823E-09
771.44391	9.36885E-09
771.58221	9.36937E-09
771.72052	9.36979E-09
771.85883	9.37011E-09
771.99707	9.37034E-09
772.13538	9.37047E-09
772.27368	9.37051E-09
772.41199	9.37046E-09
772.55029	9.37031E-09
772.68860	9.37008E-09
772.82690	9.36976E-09
772.96521	9.36936E-09
773.10352	9.36888E-09
773.24182	9.36832E-09
773.38013	9.36769E-09
773.51843	9.36699E-09
773.65674	9.36622E-09
773.79498	9.36538E-09
773.93329	9.36448E-09
774.07159	9.36352E-09
774.20990	9.36251E-09
774.34821	9.36145E-09
774.48651	9.36035E-09
774.62482	9.35921E-09
774.76312	9.35803E-09
774.90143	9.35682E-09
775.03973	9.35559E-09
775.17804	9.35433E-09
775.31635	9.35307E-09
775.45465	9.35179E-09
775.59296	9.35051E-09
775.73120	9.34922E-09
775.86951	9.34794E-09
776.00781	9.34667E-09
776.14612	9.34541E-09
776.28442	9.34419E-09
776.42273	9.34297E-09
776.56104	9.34180E-09
776.69934	9.34065E-09
776.83765	9.33955E-09
776.97595	9.33849E-09
777.11426	9.33747E-09
777.25256	9.33651E-09
777.39087	9.33561E-09
777.52911	9.33476E-09
777.66742	9.33399E-09
777.80573	9.33328E-09
777.94403	9.33265E-09
778.08234	9.33210E-09
778.22064	9.33162E-09
778.35895	9.33124E-09
778.49725	9.33095E-09
778.63556	9.33074E-09
778.77387	9.33064E-09
778.91217	9.33063E-09
779.05048	9.33072E-09
779.18878	9.33092E-09
779.32709	9.33122E-09
779.46533	9.33163E-09
779.60364	9.33216E-09
779.74194	9.33279E-09
779.88025	9.33355E-09
780.01856	9.33441E-09
780.15686	9.33539E-09
780.29517	9.33649E-09
780.43347	9.33771E-09
780.57178	9.33904E-09
780.71008	9.34049E-09
780.84839	9.34207E-09
780.98669	9.34376E-09
781.12500	9.34558E-09
781.26325	9.34751E-09
781.40155	9.34956E-09
781.53986	9.35172E-09
781.67816	9.35401E-09
781.81647	9.35640E-09
781.95477	9.35892E-09
782.09308	9.36155E-09
782.23138	9.36429E-09
782.36969	9.36714E-09
782.50800	9.37010E-09
782.64630	9.37317E-09
782.78461	9.37633E-09
782.92291	9.37961E-09
783.06122	9.38297E-09
783.19946	9.38644E-09
783.33777	9.39000E-09
783.47607	9.39365E-09
783.61438	9.39739E-09
783.75269	9.40122E-09
783.89099	9.40513E-09
784.02930	9.40912E-09
784.16760	9.41319E-09
784.30591	9.41733E-09
784.44421	9.42154E-09
784.58252	9.42582E-09
784.72083	9.43017E-09
784.85913	9.43457E-09
784.99744	9.43904E-09
785.13568	9.44356E-09
785.27399	9.44813E-09
785.41229	9.45275E-09
785.55060	9.45742E-09
785.68890	9.46213E-09
785.82721	9.46687E-09
785.96552	9.47166E-09
786.10382	9.47648E-09
786.24213	9.48132E-09
786.38043	9.48619E-09
786.51874	9.49110E-09
786.65704	9.49602E-09
786.79535	9.50096E-09
786.93359	9.50591E-09
787.07190	9.51088E-09
787.21021	9.51586E-09
787.34851	9.52086E-09
787.48682	9.52587E-09
787.62512	9.53088E-09
787.76343	9.53590E-09
787.90173	9.54093E-09
788.04004	9.54597E-09
788.17835	9.55100E-09
788.31665	9.55602E-09
788.45496	9.56106E-09
788.59326	9.56608E-09
788.73157	9.57111E-09
788.86981	9.57613E-09
789.00812	9.58115E-09
789.14642	9.58617E-09
789.28473	9.59118E-09
789.42304	9.59618E-09
789.56134	9.60117E-09
789.69965	9.60616E-09
789.83795	9.61116E-09
789.97626	9.61614E-09
790.11456	9.62112E-09
790.25287	9.62610E-09
790.39117	9.63108E-09
790.52948	9.63605E-09
790.66773	9.64102E-09
790.80603	9.64600E-09
790.94434	9.65098E-09
791.08264	9.65595E-09
791.22095	9.66093E-09
791.35925	9.66591E-09
791.49756	9.67091E-09
791.63586	9.67590E-09
791.77417	9.68091E-09
791.91248	9.68592E-09
792.05078	9.69094E-09
792.18909	9.69598E-09
792.32739	9.70103E-09
792.46570	9.70610E-09
792.60394	9.71119E-09
792.74225	9.71629E-09
792.88055	9.72142E-09
793.01886	9.72656E-09
793.15717	9.73173E-09
793.29547	9.73693E-09
793.43378	9.74215E-09
793.57208	9.74741E-09
793.71039	9.75269E-09
793.84869	9.75800E-09
793.98700	9.76334E-09
794.12531	9.76872E-09
794.26361	9.77413E-09
794.40186	9.77958E-09
794.54016	9.78505E-09
794.67847	9.79057E-09
794.81677	9.79612E-09
794.95508	9.80171E-09
795.09338	9.80734E-09
795.23169	9.81301E-09
795.37000	9.81871E-09
795.50830	9.82445E-09
795.64661	9.83024E-09
795.78491	9.83606E-09
795.92322	9.84192E-09
796.06152	9.84783E-09
796.19983	9.85376E-09
796.33807	9.85973E-09
796.47638	9.86574E-09
796.61469	9.87178E-09
796.75299	9.87787E-09
796.89130	9.88398E-09
797.02960	9.89012E-09
797.16791	9.89630E-09
797.30621	9.90251E-09
797.44452	9.90874E-09
797.58283	9.91500E-09
797.72113	9.92127E-09
797.85944	9.92757E-09
797.99774	9.93389E-09
798.13605	9.94023E-09
798.27429	9.94658E-09
798.41260	9.95295E-09
798.55090	9.95932E-09
798.68921	9.96570E-09
798.82752	9.97209E-09
798.96582	9.97847E-09
799.10413	9.98485E-09
799.24243	9.99124E-09
799.38074	9.99761E-09
799.51904	1.00040E-08
799.65735	1.00103E-08
799.79565	1.00167E-08
799.93396	1.00230E-08
800.07221	1.00293E-08
800.21051	1.00355E-08
800.34882	1.00417E-08
800.48712	1.00479E-08
800.62543	1.00541E-08
800.76373	1.00602E-08
800.90204	1.00663E-08
801.04034	1.00723E-08
801.17865	1.00783E-08
801.31696	1.00843E-08
801.45526	1.00901E-08
801.59357	1.00960E-08
801.73187	1.01017E-08
801.87018	1.01074E-08
802.00842	1.01130E-08
802.14673	1.01186E-08
802.28503	1.01240E-08
802.42334	1.01294E-08
802.56165	1.01347E-08
802.69995	1.01399E-08
802.83826	1.01451E-08
802.97656	1.01501E-08
803.11487	1.01551E-08
803.25317	1.01599E-08
803.39148	1.01647E-08
803.52979	1.01694E-08
803.66809	1.01739E-08
803.80634	1.01784E-08
803.94464	1.01828E-08
804.08295	1.01871E-08
804.22125	1.01912E-08
804.35956	1.01953E-08
804.49786	1.01992E-08
804.63617	1.02031E-08
804.77448	1.02068E-08
804.91278	1.02104E-08
805.05109	1.02139E-08
805.18939	1.02173E-08
805.32770	1.02206E-08
805.46600	1.02238E-08
805.60431	1.02269E-08
805.74255	1.02299E-08
805.88086	1.02328E-08
806.01917	1.02355E-08
806.15747	1.02382E-08
806.29578	1.02408E-08
806.43408	1.02432E-08
806.57239	1.02456E-08
806.71069	1.02478E-08
806.84900	1.02500E-08
806.98731	1.02521E-08
807.12561	1.02541E-08
807.26392	1.02560E-08
807.40222	1.02578E-08
807.54047	1.02596E-08
807.67877	1.02612E-08
807.81708	1.02628E-08
807.95538	1.02644E-08
808.09369	1.02658E-08
808.23200	1.02672E-08
808.37030	1.02685E-08
808.50861	1.02697E-08
808.64691	1.02710E-08
808.78522	1.02721E-08
808.92352	1.02732E-08
809.06183	1.02743E-08
809.20013	1.02754E-08
809.33844	1.02764E-08
809.47669	1.02773E-08
809.61499	1.02783E-08
809.75330	1.02792E-08
809.89160	1.02801E-08
810.02991	1.02810E-08
810.16821	1.02819E-08
810.30652	1.02828E-08
810.44482	1.02837E-08
810.58313	1.02846E-08
810.72144	1.02855E-08
810.85974	1.02864E-08
810.99805	1.02874E-08
811.13635	1.02884E-08
811.27460	1.02894E-08
811.41290	1.02904E-08
811.55121	1.02915E-08
811.68951	1.02926E-08
811.82782	1.02938E-08
811.96613	1.02950E-08
812.10443	1.02963E-08
812.24274	1.02976E-08
812.38104	1.02990E-08
812.51935	1.03005E-08
812.65765	1.03020E-08
812.79596	1.03037E-08
812.93427	1.03054E-08
813.07257	1.03071E-08
813.21082	1.03090E-08
813.34912	1.03109E-08
813.48743	1.03130E-08
813.62573	1.03151E-08
813.76404	1.03173E-08
813.90234	1.03196E-08
814.04065	1.03221E-08
814.17896	1.03246E-08
814.31726	1.03272E-08
814.45557	1.03300E-08
814.59387	1.03329E-08
814.73218	1.03358E-08
814.87048	1.03389E-08
815.00879	1.03421E-08
815.14703	1.03454E-08
815.28534	1.03488E-08
815.42365	1.03524E-08
815.56195	1.03560E-08
815.70026	1.03598E-08
815.83856	1.03637E-08
815.97687	1.03677E-08
816.11517	1.03718E-08
816.25348	1.03761E-08
816.39179	1.03804E-08
816.53009	1.03849E-08
816.66840	1.03895E-08
816.80670	1.03942E-08
816.94495	1.03990E-08
817.08325	1.04039E-08
817.22156	1.04089E-08
817.35986	1.04140E-08
817.49817	1.04193E-08
817.63648	1.04246E-08
817.77478	1.04300E-08
817.91309	1.04355E-08
818.05139	1.04411E-08
818.18970	1.04468E-08
818.32800	1.04525E-08
818.46631	1.04584E-08
818.60461	1.04643E-08
818.74292	1.04703E-08
818.88117	1.04763E-08
819.01947	1.04824E-08
819.15778	1.04886E-08
819.29608	1.04948E-08
819.43439	1.05010E-08
819.57269	1.05073E-08
819.71100	1.05136E-08
819.84930	1.05200E-08
819.98761	1.05263E-08
820.12592	1.05327E-08
820.26422	1.05391E-08
820.40253	1.05455E-08
820.54083	1.05519E-08
820.67908	1.05583E-08
820.81738	1.05647E-08
820.95569	1.05710E-08
821.09399	1.05773E-08
821.23230	1.05836E-08
821.37061	1.05899E-08
821.50891	1.05961E-08
821.64722	1.06022E-08
821.78552	1.06083E-08
821.92383	1.06143E-08
822.06213	1.06202E-08
822.20044	1.06260E-08
822.33875	1.06318E-08
822.47705	1.06375E-08
822.61530	1.06430E-08
822.75360	1.06485E-08
822.89191	1.06538E-08
823.03021	1.06590E-08
823.16852	1.06641E-08
823.30682	1.06690E-08
823.44513	1.06738E-08
823.58344	1.06785E-08
823.72174	1.06830E-08
823.86005	1.06874E-08
823.99835	1.06916E-08
824.13666	1.06957E-08
824.27496	1.06995E-08
824.41321	1.07032E-08
824.55151	1.07068E-08
824.68982	1.07101E-08
824.82813	1.07133E-08
824.96643	1.07162E-08
825.10474	1.07190E-08
825.24304	1.07216E-08
825.38135	1.07240E-08
825.51965	1.07262E-08
825.65796	1.07282E-08
825.79627	1.07300E-08
825.93457	1.07316E-08
826.07288	1.07330E-08
826.21118	1.07343E-08
826.34943	1.07353E-08
826.48773	1.07361E-08
826.62604	1.07367E-08
826.76434	1.07371E-08
826.90265	1.07373E-08
827.04096	1.07373E-08
827.17926	1.07372E-08
827.31757	1.07368E-08
827.45587	1.07363E-08
827.59418	1.07355E-08
827.73248	1.07346E-08
827.87079	1.07335E-08
828.00909	1.07323E-08
828.14740	1.07309E-08
828.28565	1.07293E-08
828.42395	1.07276E-08
828.56226	1.07257E-08
828.70056	1.07237E-08
828.83887	1.07215E-08
828.97717	1.07192E-08
829.11548	1.07168E-08
829.25378	1.07143E-08
829.39209	1.07116E-08
829.53040	1.07089E-08
829.66870	1.07060E-08
829.80701	1.07031E-08
829.94531	1.07001E-08
830.08356	1.06970E-08
830.22186	1.06938E-08
830.36017	1.06906E-08
830.49847	1.06873E-08
830.63678	1.06840E-08
830.77509	1.06807E-08
830.91339	1.06773E-08
831.05170	1.06740E-08
831.19000	1.06706E-08
831.32831	1.06672E-08
831.46661	1.06638E-08
831.60492	1.06605E-08
831.74323	1.06571E-08
831.88153	1.06538E-08
832.01978	1.06506E-08
832.15808	1.06473E-08
832.29639	1.06442E-08
832.43469	1.06411E-08
832.57300	1.06381E-08
832.71130	1.06351E-08
832.84961	1.06323E-08
832.98792	1.06295E-08
833.12622	1.06268E-08
833.26453	1.06242E-08
833.40283	1.06218E-08
833.54114	1.06194E-08
833.67944	1.06172E-08
833.81769	1.06151E-08
833.95599	1.06131E-08
834.09430	1.06113E-08
834.23261	1.06096E-08
834.37091	1.06081E-08
834.50922	1.06067E-08
834.64752	1.06054E-08
834.78583	1.06043E-08
834.92413	1.06034E-08
835.06244	1.06026E-08
835.20075	1.06020E-08
835.33905	1.06016E-08
835.47736	1.06013E-08
835.61566	1.06012E-08
835.75391	1.06012E-08
835.89221	1.06015E-08
836.03052	1.06018E-08
836.16882	1.06024E-08
836.30713	1.06031E-08
836.44544	1.06040E-08
836.58374	1.06051E-08
836.72205	1.06063E-08
836.86035	1.06077E-08
836.99866	1.06093E-08
837.13696	1.06110E-08
837.27527	1.06129E-08
837.41357	1.06149E-08
837.55182	1.06171E-08
837.69013	1.06194E-08
837.82843	1.06218E-08
837.96674	1.06244E-08
838.10504	1.06271E-08
838.24335	1.06300E-08
838.38165	1.06330E-08
838.51996	1.06361E-08
838.65826	1.06393E-08
838.79657	1.06426E-08
838.93488	1.06460E-08
839.07318	1.06495E-08
839.21149	1.06531E-08
839.34979	1.06568E-08
839.48804	1.06606E-08
839.62634	1.06644E-08
839.76465	1.06683E-08
839.90295	1.06722E-08
840.04126	1.06762E-08
840.17957	1.06803E-08
840.31787	1.06844E-08
840.45618	1.06885E-08
840.59448	1.06926E-08
840.73279	1.06967E-08
840.87109	1.07009E-08
841.00940	1.07050E-08
841.14771	1.07091E-08
841.28595	1.07133E-08
841.42426	1.07174E-08
841.56256	1.07215E-08
841.70087	1.07255E-08
841.83917	1.07296E-08
841.97748	1.07335E-08
842.11578	1.07374E-08
842.25409	1.07413E-08
842.39240	1.07451E-08
842.53070	1.07488E-08
842.66901	1.07525E-08
842.80731	1.07560E-08
842.94562	1.07595E-08
843.08392	1.07630E-08
843.22217	1.07663E-08
843.36047	1.07695E-08
843.49878	1.07726E-08
843.63709	1.07756E-08
843.77539	1.07785E-08
843.91370	1.07814E-08
844.05200	1.07840E-08
844.19031	1.07866E-08
844.32861	1.07891E-08
844.46692	1.07915E-08
844.60523	1.07937E-08
844.74353	1.07958E-08
844.88184	1.07979E-08
845.02014	1.07997E-08
845.15839	1.08015E-08
845.29669	1.08032E-08
845.43500	1.08047E-08
845.57330	1.08062E-08
845.71161	1.08075E-08
845.84992	1.08087E-08
845.98822	1.08098E-08
846.12653	1.08108E-08
846.26483	1.08117E-08
846.40314	1.08124E-08
846.54144	1.08131E-08
846.67975	1.08137E-08
846.81805	1.08142E-08
846.95630	1.08146E-08
847.09460	1.08149E-08
847.23291	1.08152E-08
847.37122	1.08153E-08
847.50952	1.08154E-08
847.64783	1.08154E-08
847.78613	1.08154E-08
847.92444	1.08153E-08
848.06274	1.08151E-08
848.20105	1.08149E-08
848.33936	1.08147E-08
848.47766	1.08144E-08
848.61597	1.08141E-08
848.75427	1.08137E-08
848.89252	1.08133E-08
849.03082	1.08129E-08
849.16913	1.08125E-08
849.30743	1.08121E-08
849.44574	1.08116E-08
849.58405	1.08112E-08
849.72235	1.08107E-08
849.86066	1.08103E-08
849.99896	1.08099E-08
850.13727	1.08095E-08
850.27557	1.08091E-08
850.41388	1.08087E-08
850.55219	1.08084E-08
850.69043	1.08081E-08
850.82874	1.08078E-08
850.96704	1.08075E-08
851.10535	1.08073E-08
851.24365	1.08072E-08
851.38196	1.08070E-08
851.52026	1.08069E-08
851.65857	1.08069E-08
851.79688	1.08069E-08
851.93518	1.08069E-08
852.07349	1.08070E-08
852.21179	1.08071E-08
852.35010	1.08073E-08
852.48840	1.08075E-08
852.62665	1.08078E-08
852.76495	1.08081E-08
852.90326	1.08085E-08
853.04157	1.08089E-08
853.17987	1.08093E-08
853.31818	1.08098E-08
853.45648	1.08104E-08
853.59479	1.08109E-08
853.73309	1.08116E-08
853.87140	1.08122E-08
854.00971	1.08129E-08
854.14801	1.08136E-08
854.28632	1.08144E-08
854.42456	1.08152E-08
854.56287	1.08160E-08
854.70117	1.08168E-08
854.83948	1.08177E-08
854.97778	1.08185E-08
855.11609	1.08194E-08
855.25440	1.08202E-08
855.39270	1.08211E-08
855.53101	1.08220E-08
855.66931	1.08228E-08
855.80762	1.08237E-08
855.94592	1.08245E-08
856.08423	1.08253E-08
856.22253	1.08261E-08
856.36078	1.08269E-08
856.49908	1.08276E-08
856.63739	1.08283E-08
856.77570	1.08290E-08
856.91400	1.08296E-08
857.05231	1.08302E-08
857.19061	1.08308E-08
857.32892	1.08313E-08
857.46722	1.08317E-08
857.60553	1.08321E-08
857.74384	1.08324E-08
857.88214	1.08327E-08
858.02045	1.08328E-08
858.15875	1.08330E-08
858.29700	1.08330E-08
858.43530	1.08330E-08
858.57361	1.08329E-08
858.71191	1.08328E-08
858.85022	1.08325E-08
858.98853	1.08322E-08
859.12683	1.08318E-08
859.26514	1.08313E-08
859.40344	1.08308E-08
859.54175	1.08302E-08
859.68005	1.08295E-08
859.81836	1.08287E-08
859.95667	1.08279E-08
860.09491	1.08270E-08
860.23322	1.08260E-08
860.37152	1.08249E-08
860.50983	1.08238E-08
860.64813	1.08226E-08
860.78644	1.08213E-08
860.92474	1.08200E-08
861.06305	1.08187E-08
861.20136	1.08172E-08
861.33966	1.08158E-08
861.47797	1.08143E-08
861.61627	1.08127E-08
861.75458	1.08111E-08
861.89288	1.08095E-08
862.03113	1.08078E-08
862.16943	1.08061E-08
862.30774	1.08044E-08
862.44605	1.08027E-08
862.58435	1.08010E-08
862.72266	1.07993E-08
862.86096	1.07976E-08
862.99927	1.07959E-08
863.13757	1.07942E-08
863.27588	1.07925E-08
863.41419	1.07908E-08
863.55249	1.07892E-08
863.69080	1.07876E-08
863.82904	1.07861E-08
863.96735	1.07845E-08
864.10565	1.07831E-08
864.24396	1.07817E-08
864.38226	1.07804E-08
864.52057	1.07791E-08
864.65888	1.07779E-08
864.79718	1.07768E-08
864.93549	1.07758E-08
865.07379	1.07748E-08
865.21210	1.07740E-08
865.35040	1.07732E-08
865.48871	1.07725E-08
865.62701	1.07720E-08
865.76526	1.07716E-08
865.90356	1.07712E-08
866.04187	1.07710E-08
866.18018	1.07709E-08
866.31848	1.07710E-08
866.45679	1.07711E-08
866.59509	1.07714E-08
866.73340	1.07718E-08
866.87170	1.07723E-08
867.01001	1.07730E-08
867.14832	1.07738E-08
867.28662	1.07747E-08
867.42493	1.07758E-08
867.56317	1.07770E-08
867.70148	1.07783E-08
867.83978	1.07798E-08
867.97809	1.07814E-08
868.11639	1.07831E-08
868.25470	1.07850E-08
868.39301	1.07870E-08
868.53131	1.07891E-08
868.66962	1.07913E-08
868.80792	1.07937E-08
868.94623	1.07962E-08
869.08453	1.07988E-08
869.22284	1.08016E-08
869.36115	1.08044E-08
869.49939	1.08073E-08
869.63770	1.08104E-08
869.77600	1.08135E-08
869.91431	1.08168E-08
870.05261	1.08201E-08
870.19092	1.08235E-08
870.32922	1.08270E-08
870.46753	1.08306E-08
870.60584	1.08342E-08
870.74414	1.08379E-08
870.88245	1.08416E-08
871.02075	1.08455E-08
871.15906	1.08493E-08
871.29730	1.08532E-08
871.43561	1.08571E-08
871.57391	1.08611E-08
871.71222	1.08650E-08
871.85053	1.08690E-08
871.98883	1.08730E-08
872.12714	1.08770E-08
872.26544	1.08810E-08
872.40375	1.08850E-08
872.54205	1.08890E-08
872.68036	1.08929E-08
872.81867	1.08968E-08
872.95697	1.09007E-08
873.09528	1.09046E-08
873.23352	1.09084E-08
873.37183	1.09122E-08
873.51013	1.09159E-08
873.64844	1.09195E-08
873.78674	1.09231E-08
873.92505	1.09267E-08
874.06335	1.09301E-08
874.20166	1.09335E-08
874.33997	1.09368E-08
874.47827	1.09400E-08
874.61658	1.09432E-08
874.75488	1.09462E-08
874.89319	1.09492E-08
875.03149	1.09521E-08
875.16974	1.09549E-08
875.30804	1.09576E-08
875.44635	1.09602E-08
875.58466	1.09627E-08
875.72296	1.09651E-08
875.86127	1.09674E-08
875.99957	1.09696E-08
876.13788	1.09718E-08
876.27618	1.09738E-08
876.41449	1.09757E-08
876.55280	1.09776E-08
876.69110	1.09794E-08
876.82941	1.09811E-08
876.96765	1.09827E-08
877.10596	1.09842E-08
877.24426	1.09856E-08
877.38257	1.09870E-08
877.52087	1.09884E-08
877.65918	1.09896E-08
877.79749	1.09908E-08
877.93579	1.09920E-08
878.07410	1.09931E-08
878.21240	1.09942E-08
878.35071	1.09952E-08
878.48901	1.09962E-08
878.62732	1.09971E-08
878.76563	1.09981E-08
878.90387	1.09990E-08
879.04218	1.10000E-08
879.18048	1.10009E-08
879.31879	1.10018E-08
879.45709	1.10028E-08
879.59540	1.10037E-08
879.73370	1.10047E-08
879.87201	1.10057E-08
880.01032	1.10068E-08
880.14862	1.10079E-08
880.28693	1.10091E-08
880.42523	1.10103E-08
880.56354	1.10116E-08
880.70178	1.10129E-08
880.84009	1.10143E-08
880.97839	1.10159E-08
881.11670	1.10175E-08
881.25501	1.10191E-08
881.39331	1.10209E-08
881.53162	1.10228E-08
881.66992	1.10248E-08
881.80823	1.10269E-08
881.94653	1.10292E-08
882.08484	1.10315E-08
882.22315	1.10340E-08
882.36145	1.10366E-08
882.49976	1.10394E-08
882.63800	1.10422E-08
882.77631	1.10453E-08
882.91461	1.10484E-08
883.05292	1.10517E-08
883.19122	1.10552E-08
883.32953	1.10588E-08
883.46783	1.10625E-08
883.60614	1.10664E-08
883.74445	1.10704E-08
883.88275	1.10746E-08
884.02106	1.10790E-08
884.15936	1.10834E-08
884.29767	1.10881E-08
884.43591	1.10929E-08
884.57422	1.10978E-08
884.71252	1.11029E-08
884.85083	1.11081E-08
884.98914	1.11134E-08
885.12744	1.11189E-08
885.26575	1.11245E-08
885.40405	1.11303E-08
885.54236	1.11361E-08
885.68066	1.11421E-08
885.81897	1.11482E-08
885.95728	1.11544E-08
886.09558	1.11607E-08
886.23389	1.11672E-08
886.37213	1.11737E-08
886.51044	1.11803E-08
886.64874	1.11870E-08
886.78705	1.11937E-08
886.92535	1.12005E-08
887.06366	1.12074E-08
887.20197	1.12144E-08
887.34027	1.12214E-08
887.47858	1.12284E-08
887.61688	1.12355E-08
887.75519	1.12426E-08
887.89349	1.12497E-08
888.03180	1.12568E-08
888.17011	1.12640E-08
888.30835	1.12711E-08
888.44666	1.12782E-08
888.58496	1.12853E-08
888.72327	1.12924E-08
888.86157	1.12994E-08
888.99988	1.13064E-08
889.13818	1.13134E-08
889.27649	1.13203E-08
889.41480	1.13271E-08
889.55310	1.13339E-08
889.69141	1.13406E-08
889.82971	1.13472E-08
889.96802	1.13538E-08
890.10626	1.13602E-08
890.24457	1.13665E-08
890.38287	1.13728E-08
890.52118	1.13789E-08
890.65949	1.13849E-08
890.79779	1.13907E-08
890.93610	1.13965E-08
891.07440	1.14021E-08
891.21271	1.14075E-08
891.35101	1.14129E-08
891.48932	1.14181E-08
891.62763	1.14231E-08
891.76593	1.14280E-08
891.90424	1.14327E-08
892.04248	1.14373E-08
892.18079	1.14417E-08
892.31909	1.14460E-08
892.45740	1.14501E-08
892.59570	1.14540E-08
892.73401	1.14578E-08
892.87231	1.14614E-08
893.01062	1.14649E-08
893.14893	1.14682E-08
893.28723	1.14714E-08
893.42554	1.14744E-08
893.56384	1.14772E-08
893.70215	1.14799E-08
893.84039	1.14825E-08
893.97870	1.14849E-08
894.11700	1.14871E-08
894.25531	1.14892E-08
894.39362	1.14912E-08
894.53192	1.14930E-08
894.67023	1.14947E-08
894.80853	1.14963E-08
894.94684	1.14977E-08
895.08514	1.14991E-08
895.22345	1.15003E-08
895.36176	1.15014E-08
895.50006	1.15025E-08
895.63837	1.15034E-08
895.77661	1.15042E-08
895.91492	1.15050E-08
896.05322	1.15056E-08
896.19153	1.15062E-08
896.32983	1.15068E-08
896.46814	1.15072E-08
896.60645	1.15076E-08
896.74475	1.15080E-08
896.88306	1.15083E-08
897.02136	1.15085E-08
897.15967	1.15087E-08
897.29797	1.15089E-08
897.43628	1.15091E-08
897.57452	1.15093E-08
897.71283	1.15094E-08
897.85114	1.15095E-08
897.98944	1.15096E-08
898.12775	1.15098E-08
898.26605	1.15099E-08
898.40436	1.15100E-08
898.54266	1.15102E-08
898.68097	1.15104E-08
898.81928	1.15106E-08
898.95758	1.15108E-08
899.09589	1.15111E-08
899.23419	1.15114E-08
899.37250	1.15117E-08
899.51074	1.15121E-08
899.64905	1.15125E-08
899.78735	1.15130E-08
899.92566	1.15135E-08
900.06397	1.15141E-08
900.20227	1.15147E-08
900.34058	1.15154E-08
900.47888	1.15162E-08
900.61719	1.15170E-08
900.75549	1.15179E-08
900.89380	1.15188E-08
901.03210	1.15198E-08
901.17041	1.15209E-08
901.30866	1.15221E-08
901.44696	1.15233E-08
901.58527	1.15246E-08
901.72357	1.15260E-08
901.86188	1.15274E-08
902.00018	1.15289E-08
902.13849	1.15305E-08
902.27679	1.15321E-08
902.41510	1.15339E-08
902.55341	1.15357E-08
902.69171	1.15375E-08
902.83002	1.15394E-08
902.96832	1.15414E-08
903.10663	1.15435E-08
903.24487	1.15456E-08
903.38318	1.15478E-08
903.52148	1.15501E-08
903.65979	1.15524E-08
903.79810	1.15547E-08
903.93640	1.15572E-08
904.07471	1.15596E-08
904.21301	1.15622E-08
904.35132	1.15648E-08
904.48962	1.15674E-08
904.62793	1.15701E-08
904.76624	1.15728E-08
904.90454	1.15756E-08
905.04285	1.15784E-08
905.18109	1.15813E-08
905.31940	1.15841E-08
905.45770	1.15871E-08
905.59601	1.15900E-08
905.73431	1.15930E-08
905.87262	1.15961E-08
906.01093	1.15991E-08
906.14923	1.16022E-08
906.28754	1.16053E-08
906.42584	1.16085E-08
906.56415	1.16117E-08
906.70245	1.16149E-08
906.84076	1.16181E-08
906.97900	1.16213E-08
907.11731	1.16245E-08
907.25562	1.16278E-08
907.39392	1.16311E-08
907.53223	1.16344E-08
907.67053	1.16377E-08
907.80884	1.16411E-08
907.94714	1.16444E-08
908.08545	1.16478E-08
908.22376	1.16511E-08
908.36206	1.16545E-08
908.50037	1.16579E-08
908.63867	1.16613E-08
908.77698	1.16647E-08
908.91522	1.16681E-08
909.05353	1.16716E-08
909.19183	1.16750E-08
909.33014	1.16785E-08
909.46845	1.16820E-08
909.60675	1.16854E-08
909.74506	1.16889E-08
909.88336	1.16925E-08
910.02167	1.16960E-08
910.15997	1.16995E-08
910.29828	1.17031E-08
910.43658	1.17066E-08
910.57489	1.17102E-08
910.71314	1.17138E-08
910.85144	1.17174E-08
910.98975	1.17210E-08
911.12805	1.17246E-08
911.26636	1.17282E-08
911.40466	1.17319E-08
911.54297	1.17355E-08
911.68127	1.17392E-08
911.81958	1.17429E-08
911.95789	1.17466E-08
912.09619	1.17503E-08
912.23450	1.17541E-08
912.37280	1.17578E-08
912.51111	1.17616E-08
912.64935	1.17653E-08
912.78766	1.17691E-08
912.92596	1.17729E-08
913.06427	1.17767E-08
913.20258	1.17806E-08
913.34088	1.17844E-08
913.47919	1.17882E-08
913.61749	1.17921E-08
913.75580	1.17959E-08
913.89410	1.17998E-08
914.03241	1.18036E-08
914.17072	1.18075E-08
914.30902	1.18114E-08
914.44727	1.18153E-08
914.58557	1.18192E-08
914.72388	1.18230E-08
914.86218	1.18269E-08
915.00049	1.18308E-08
915.13879	1.18347E-08
915.27710	1.18385E-08
915.41541	1.18424E-08
915.55371	1.18462E-08
915.69202	1.18501E-08
915.83032	1.18539E-08
915.96863	1.18577E-08
916.10693	1.18615E-08
916.24524	1.18653E-08
916.38348	1.18691E-08
916.52179	1.18729E-08
916.66010	1.18766E-08
916.79840	1.18803E-08
916.93671	1.18840E-08
917.07501	1.18877E-08
917.21332	1.18914E-08
917.35162	1.18950E-08
917.48993	1.18986E-08
917.62824	1.19022E-08
917.76654	1.19057E-08
917.90485	1.19093E-08
918.04315	1.19128E-08
918.18146	1.19162E-08
918.31970	1.19197E-08
918.45801	1.19231E-08
918.59631	1.19264E-08
918.73462	1.19298E-08
918.87293	1.19331E-08
919.01123	1.19364E-08
919.14954	1.19397E-08
919.28784	1.19429E-08
919.42615	1.19461E-08
919.56445	1.19493E-08
919.70276	1.19524E-08
919.84106	1.19555E-08
919.97937	1.19586E-08
920.11762	1.19617E-08
920.25592	1.19647E-08
920.39423	1.19677E-08
920.53253	1.19707E-08
920.67084	1.19737E-08
920.80914	1.19766E-08
920.94745	1.19796E-08
921.08575	1.19825E-08
921.22406	1.19854E-08
921.36237	1.19883E-08
921.50067	1.19912E-08
921.63898	1.19940E-08
921.77728	1.19969E-08
921.91559	1.19998E-08
922.05383	1.20026E-08
922.19214	1.20055E-08
922.33044	1.20084E-08
922.46875	1.20112E-08
922.60706	1.20141E-08
922.74536	1.20170E-08
922.88367	1.20199E-08
923.02197	1.20228E-08
923.16028	1.20257E-08
923.29858	1.20286E-08
923.43689	1.20316E-08
923.57520	1.20346E-08
923.71350	1.20376E-08
923.85175	1.20406E-08
923.99005	1.20437E-08
924.12836	1.20468E-08
924.26666	1.20499E-08
924.40497	1.20531E-08
924.54327	1.20563E-08
924.68158	1.20595E-08
924.81989	1.20628E-08
924.95819	1.20661E-08
925.09650	1.20695E-08
925.23480	1.20729E-08
925.37311	1.20764E-08
925.51141	1.20799E-08
925.64972	1.20835E-08
925.78796	1.20871E-08
925.92627	1.20908E-08
926.06458	1.20945E-08
926.20288	1.20982E-08
926.34119	1.21021E-08
926.47949	1.21059E-08
926.61780	1.21098E-08
926.75610	1.21138E-08
926.89441	1.21178E-08
927.03272	1.21219E-08
927.17102	1.21260E-08
927.30933	1.21301E-08
927.44763	1.21343E-08
927.58588	1.21386E-08
927.72418	1.21428E-08
927.86249	1.21471E-08
928.00079	1.21515E-08
928.13910	1.21559E-08
928.27741	1.21603E-08
928.41571	1.21647E-08
928.55402	1.21692E-08
928.69232	1.21737E-08
928.83063	1.21782E-08
928.96893	1.21827E-08
929.10724	1.21872E-08
929.24554	1.21917E-08
929.38385	1.21963E-08
929.52210	1.22008E-08
929.66040	1.22053E-08
929.79871	1.22099E-08
929.93701	1.22144E-08
930.07532	1.22189E-08
930.21362	1.22234E-08
930.35193	1.22279E-08
930.49023	1.22323E-08
930.62854	1.22367E-08
930.76685	1.22411E-08
930.90515	1.22455E-08
931.04346	1.22498E-08
931.18176	1.22541E-08
931.32001	1.22583E-08
931.45831	1.22625E-08
931.59662	1.22666E-08
931.73492	1.22707E-08
931.87323	1.22747E-08
932.01154	1.22787E-08
932.14984	1.22826E-08
932.28815	1.22865E-08
932.42645	1.22903E-08
932.56476	1.22940E-08
932.70306	1.22977E-08
932.84137	1.23013E-08
932.97968	1.23048E-08
933.11798	1.23083E-08
933.25623	1.23117E-08
933.39453	1.23150E-08
933.53284	1.23183E-08
933.67114	1.23215E-08
933.80945	1.23246E-08
933.94775	1.23277E-08
934.08606	1.23307E-08
934.22437	1.23337E-08
934.36267	1.23366E-08
934.50098	1.23394E-08
934.63928	1.23422E-08
934.77759	1.23450E-08
934.91589	1.23477E-08
935.05420	1.23503E-08
935.19244	1.23529E-08
935.33075	1.23555E-08
935.46906	1.23580E-08
935.60736	1.23606E-08
935.74567	1.23630E-08
935.88397	1.23655E-08
936.02228	1.23680E-08
936.16058	1.23704E-08
936.29889	1.23728E-08
936.43720	1.23753E-08
936.57550	1.23777E-08
936.71381	1.23802E-08
936.85211	1.23826E-08
936.99036	1.23851E-08
937.12866	1.23876E-08
937.26697	1.23902E-08
937.40527	1.23928E-08
937.54358	1.23954E-08
937.68189	1.23981E-08
937.82019	1.24008E-08
937.95850	1.24036E-08
938.09680	1.24065E-08
938.23511	1.24094E-08
938.37341	1.24124E-08
938.51172	1.24155E-08
938.65002	1.24186E-08
938.78833	1.24219E-08
938.92658	1.24253E-08
939.06488	1.24287E-08
939.20319	1.24323E-08
939.34149	1.24359E-08
939.47980	1.24397E-08
939.61810	1.24436E-08
939.75641	1.24476E-08
939.89471	1.24517E-08
940.03302	1.24559E-08
940.17133	1.24603E-08
940.30963	1.24647E-08
940.44794	1.24693E-08
940.58624	1.24741E-08
940.72449	1.24789E-08
940.86279	1.24839E-08
941.00110	1.24890E-08
941.13940	1.24942E-08
941.27771	1.24996E-08
941.41602	1.25050E-08
941.55432	1.25106E-08
941.69263	1.25163E-08
941.83093	1.25221E-08
941.96924	1.25280E-08
942.10754	1.25340E-08
942.24585	1.25400E-08
942.38416	1.25462E-08
942.52246	1.25525E-08
942.66071	1.25588E-08
942.79901	1.25652E-08
942.93732	1.25717E-08
943.07562	1.25782E-08
943.21393	1.25848E-08
943.35223	1.25914E-08
943.49054	1.25981E-08
943.62885	1.26047E-08
943.76715	1.26114E-08
943.90546	1.26181E-08
944.04376	1.26248E-08
944.18207	1.26314E-08
944.32037	1.26381E-08
944.45862	1.26447E-08
944.59692	1.26512E-08
944.73523	1.26577E-08
944.87354	1.26641E-08
945.01184	1.26705E-08
945.15015	1.26767E-08
945.28845	1.26828E-08
945.42676	1.26889E-08
945.56506	1.26948E-08
945.70337	1.27006E-08
945.84168	1.27062E-08
945.97998	1.27117E-08
946.11829	1.27170E-08
946.25659	1.27221E-08
946.39484	1.27271E-08
946.53314	1.27318E-08
946.67145	1.27364E-08
946.80975	1.27408E-08
946.94806	1.27449E-08
947.08637	1.27489E-08
947.22467	1.27526E-08
947.36298	1.27560E-08
947.50128	1.27593E-08
947.63959	1.27622E-08
947.77789	1.27650E-08
947.91620	1.27675E-08
948.05450	1.27697E-08
948.19281	1.27717E-08
948.33106	1.27735E-08
948.46936	1.27749E-08
948.60767	1.27762E-08
948.74597	1.27771E-08
948.88428	1.27778E-08
949.02258	1.27783E-08
949.16089	1.27785E-08
949.29919	1.27784E-08
949.43750	1.27781E-08
949.57581	1.27776E-08
949.71411	1.27769E-08
949.85242	1.27759E-08
949.99072	1.27746E-08
950.12897	1.27732E-08
950.26727	1.27715E-08
950.40558	1.27697E-08
950.54388	1.27676E-08
950.68219	1.27654E-08
950.82050	1.27630E-08
950.95880	1.27604E-08
951.09711	1.27577E-08
951.23541	1.27548E-08
951.37372	1.27518E-08
951.51202	1.27487E-08
951.65033	1.27454E-08
951.78864	1.27421E-08
951.92694	1.27386E-08
952.06519	1.27351E-08
952.20349	1.27315E-08
952.34180	1.27279E-08
952.48010	1.27242E-08
952.61841	1.27205E-08
952.75671	1.27168E-08
952.89502	1.27131E-08
953.03333	1.27094E-08
953.17163	1.27057E-08
953.30994	1.27021E-08
953.44824	1.26985E-08
953.58655	1.26950E-08
953.72485	1.26916E-08
953.86310	1.26882E-08
954.00140	1.26850E-08
954.13971	1.26819E-08
954.27802	1.26789E-08
954.41632	1.26761E-08
954.55463	1.26734E-08
954.69293	1.26709E-08
954.83124	1.26686E-08
954.96954	1.26665E-08
955.10785	1.26645E-08
955.24616	1.26628E-08
955.38446	1.26613E-08
955.52277	1.26600E-08
955.66107	1.26590E-08
955.79932	1.26583E-08
955.93762	1.26578E-08
956.07593	1.26575E-08
956.21423	1.26576E-08
956.35254	1.26579E-08
956.49085	1.26585E-08
956.62915	1.26594E-08
956.76746	1.26606E-08
956.90576	1.26621E-08
957.04407	1.26640E-08
957.18237	1.26661E-08
957.32068	1.26686E-08
957.45898	1.26714E-08
957.59723	1.26745E-08
957.73554	1.26780E-08
957.87384	1.26817E-08
958.01215	1.26858E-08
958.15045	1.26903E-08
958.28876	1.26950E-08
958.42706	1.27001E-08
958.56537	1.27055E-08
958.70367	1.27112E-08
958.84198	1.27172E-08
958.98029	1.27235E-08
959.11859	1.27302E-08
959.25690	1.27371E-08
959.39520	1.27443E-08
959.53345	1.27518E-08
959.67175	1.27596E-08
959.81006	1.27676E-08
959.94836	1.27759E-08
960.08667	1.27845E-08
960.22498	1.27933E-08
960.36328	1.28023E-08
960.50159	1.28115E-08
960.63989	1.28209E-08
960.77820	1.28305E-08
960.91650	1.28403E-08
961.05481	1.28503E-08
961.19312	1.28604E-08
961.33136	1.28707E-08
961.46967	1.28810E-08
961.60797	1.28915E-08
961.74628	1.29021E-08
961.88458	1.29127E-08
962.02289	1.29234E-08
962.16119	1.29342E-08
962.29950	1.29450E-08
962.43781	1.29558E-08
962.57611	1.29666E-08
962.71442	1.29774E-08
962.85272	1.29881E-08
962.99103	1.29988E-08
963.12933	1.30095E-08
963.26758	1.30200E-08
963.40588	1.30305E-08
963.54419	1.30409E-08
963.68250	1.30511E-08
963.82080	1.30613E-08
963.95911	1.30712E-08
964.09741	1.30811E-08
964.23572	1.30907E-08
964.37402	1.31002E-08
964.51233	1.31094E-08
964.65064	1.31185E-08
964.78894	1.31273E-08
964.92725	1.31359E-08
965.06555	1.31443E-08
965.20380	1.31524E-08
965.34210	1.31603E-08
965.48041	1.31680E-08
965.61871	1.31753E-08
965.75702	1.31824E-08
965.89533	1.31892E-08
966.03363	1.31958E-08
966.17194	1.32021E-08
966.31024	1.32081E-08
966.44855	1.32138E-08
966.58685	1.32192E-08
966.72516	1.32243E-08
966.86346	1.32292E-08
967.00171	1.32338E-08
967.14002	1.32381E-08
967.27832	1.32421E-08
967.41663	1.32459E-08
967.55493	1.32494E-08
967.69324	1.32527E-08
967.83154	1.32557E-08
967.96985	1.32584E-08
968.10815	1.32609E-08
968.24646	1.32633E-08
968.38477	1.32653E-08
968.52307	1.32672E-08
968.66138	1.32689E-08
968.79968	1.32703E-08
968.93793	1.32716E-08
969.07623	1.32728E-08
969.21454	1.32737E-08
969.35284	1.32745E-08
969.49115	1.32752E-08
969.62946	1.32758E-08
969.76776	1.32762E-08
969.90607	1.32766E-08
970.04437	1.32769E-08
970.18268	1.32771E-08
970.32098	1.32772E-08
970.45929	1.32773E-08
970.59760	1.32773E-08
970.73584	1.32773E-08
970.87415	1.32773E-08
971.01245	1.32773E-08
971.15076	1.32773E-08
971.28906	1.32774E-08
971.42737	1.32774E-08
971.56567	1.32776E-08
971.70398	1.32777E-08
971.84229	1.32780E-08
971.98059	1.32783E-08
972.11890	1.32787E-08
972.25720	1.32792E-08
972.39551	1.32798E-08
972.53381	1.32805E-08
972.67206	1.32814E-08
972.81036	1.32824E-08
972.94867	1.32835E-08
973.08698	1.32847E-08
973.22528	1.32861E-08
973.36359	1.32877E-08
973.50189	1.32894E-08
973.64020	1.32913E-08
973.77850	1.32934E-08
973.91681	1.32956E-08
974.05512	1.32981E-08
974.19342	1.33007E-08
974.33173	1.33034E-08
974.46997	1.33064E-08
974.60828	1.33095E-08
974.74658	1.33128E-08
974.88489	1.33164E-08
975.02319	1.33200E-08
975.16150	1.33239E-08
975.29981	1.33280E-08
975.43811	1.33322E-08
975.57642	1.33366E-08
975.71472	1.33411E-08
975.85303	1.33459E-08
975.99133	1.33507E-08
976.12964	1.33558E-08
976.26794	1.33610E-08
976.40619	1.33663E-08
976.54450	1.33718E-08
976.68280	1.33774E-08
976.82111	1.33831E-08
976.95941	1.33889E-08
977.09772	1.33949E-08
977.23602	1.34010E-08
977.37433	1.34071E-08
977.51263	1.34134E-08
977.65094	1.34197E-08
977.78925	1.34261E-08
977.92755	1.34325E-08
978.06586	1.34391E-08
978.20416	1.34456E-08
978.34241	1.34523E-08
978.48071	1.34589E-08
978.61902	1.34656E-08
978.75732	1.34723E-08
978.89563	1.34790E-08
979.03394	1.34857E-08
979.17224	1.34924E-08
979.31055	1.34991E-08
979.44885	1.35058E-08
979.58716	1.35125E-08
979.72546	1.35191E-08
979.86377	1.35257E-08
980.00208	1.35323E-08
980.14032	1.35388E-08
980.27863	1.35453E-08
980.41693	1.35517E-08
980.55524	1.35581E-08
980.69354	1.35644E-08
980.83185	1.35706E-08
980.97015	1.35768E-08
981.10846	1.35829E-08
981.24677	1.35889E-08
981.38507	1.35949E-08
981.52338	1.36008E-08
981.66168	1.36066E-08
981.79999	1.36124E-08
981.93829	1.36180E-08
982.07654	1.36237E-08
982.21484	1.36292E-08
982.35315	1.36347E-08
982.49146	1.36401E-08
982.62976	1.36455E-08
982.76807	1.36508E-08
982.90637	1.36560E-08
983.04468	1.36612E-08
983.18298	1.36663E-08
983.32129	1.36714E-08
983.45960	1.36765E-08
983.59790	1.36816E-08
983.73621	1.36866E-08
983.87445	1.36916E-08
984.01276	1.36966E-08
984.15106	1.37016E-08
984.28937	1.37066E-08
984.42767	1.37116E-08
984.56598	1.37166E-08
984.70429	1.37217E-08
984.84259	1.37268E-08
984.98090	1.37319E-08
985.11920	1.37371E-08
985.25751	1.37424E-08
985.39581	1.37477E-08
985.53412	1.37531E-08
985.67242	1.37586E-08
985.81067	1.37642E-08
985.94898	1.37699E-08
986.08728	1.37757E-08
986.22559	1.37815E-08
986.36389	1.37876E-08
986.50220	1.37937E-08
986.64050	1.38000E-08
986.77881	1.38064E-08
986.91711	1.38130E-08
987.05542	1.38197E-08
987.19373	1.38266E-08
987.33203	1.38337E-08
987.47034	1.38409E-08
987.60858	1.38483E-08
987.74689	1.38558E-08
987.88519	1.38635E-08
988.02350	1.38715E-08
988.16180	1.38796E-08
988.30011	1.38878E-08
988.43842	1.38963E-08
988.57672	1.39050E-08
988.71503	1.39138E-08
988.85333	1.39228E-08
988.99164	1.39320E-08
989.12994	1.39414E-08
989.26825	1.39509E-08
989.40656	1.39606E-08
989.54480	1.39705E-08
989.68311	1.39805E-08
989.82141	1.39907E-08
989.95972	1.40011E-08
990.09802	1.40116E-08
990.23633	1.40222E-08
990.37463	1.40330E-08
990.51294	1.40438E-08
990.65125	1.40548E-08
990.78955	1.40659E-08
990.92786	1.40771E-08
991.06616	1.40884E-08
991.20447	1.40997E-08
991.34277	1.41111E-08
991.48102	1.41225E-08
991.61932	1.41340E-08
991.75763	1.41455E-08
991.89594	1.41571E-08
992.03424	1.41686E-08
992.17255	1.41801E-08
992.31085	1.41916E-08
992.44916	1.42031E-08
992.58746	1.42145E-08
992.72577	1.42258E-08
992.86408	1.42370E-08
993.00238	1.42482E-08
993.14069	1.42592E-08
993.27893	1.42702E-08
993.41724	1.42810E-08
993.55554	1.42916E-08
993.69385	1.43021E-08
993.83215	1.43125E-08
993.97046	1.43227E-08
994.10877	1.43326E-08
994.24707	1.43424E-08
994.38538	1.43520E-08
994.52368	1.43613E-08
994.66199	1.43705E-08
994.80029	1.43793E-08
994.93860	1.43880E-08
995.07690	1.43964E-08
995.21515	1.44045E-08
995.35346	1.44123E-08
995.49176	1.44199E-08
995.63007	1.44272E-08
995.76837	1.44343E-08
995.90668	1.44410E-08
996.04498	1.44474E-08
996.18329	1.44536E-08
996.32159	1.44595E-08
996.45990	1.44651E-08
996.59821	1.44704E-08
996.73651	1.44754E-08
996.87482	1.44802E-08
997.01306	1.44846E-08
997.15137	1.44888E-08
997.28967	1.44927E-08
997.42798	1.44964E-08
997.56628	1.44998E-08
997.70459	1.45029E-08
997.84290	1.45058E-08
997.98120	1.45085E-08
998.11951	1.45110E-08
998.25781	1.45132E-08
998.39612	1.45153E-08
998.53442	1.45171E-08
998.67273	1.45188E-08
998.81104	1.45203E-08
998.94928	1.45216E-08
999.08759	1.45229E-08
999.22589	1.45240E-08
999.36420	1.45249E-08
999.50250	1.45258E-08
999.64081	1.45267E-08
999.77911	1.45274E-08
999.91742	1.45281E-08
1000.05573	1.45288E-08
1000.19403	1.45295E-08
1000.33234	1.45302E-08
1000.47064	1.45309E-08
1000.60895	1.45317E-08
1000.74719	1.45325E-08
1000.88550	1.45334E-08
1001.02380	1.45344E-08
1001.16211	1.45354E-08
1001.30042	1.45366E-08
1001.43872	1.45380E-08
1001.57703	1.45395E-08
1001.71533	1.45412E-08
1001.85364	1.45431E-08
1001.99194	1.45452E-08
1002.13025	1.45476E-08
1002.26856	1.45501E-08
1002.40686	1.45530E-08
1002.54517	1.45560E-08
1002.68341	1.45594E-08
1002.82172	1.45631E-08
1002.96002	1.45671E-08
1003.09833	1.45714E-08
1003.23663	1.45761E-08
1003.37494	1.45811E-08
1003.51325	1.45864E-08
1003.65155	1.45921E-08
1003.78986	1.45982E-08
1003.92816	1.46046E-08
1004.06647	1.46114E-08
1004.20477	1.46187E-08
1004.34308	1.46263E-08
1004.48132	1.46343E-08
1004.61963	1.46427E-08
1004.75794	1.46515E-08
1004.89624	1.46607E-08
1005.03455	1.46704E-08
1005.17285	1.46804E-08
1005.31116	1.46909E-08
1005.44946	1.47017E-08
1005.58777	1.47129E-08
1005.72607	1.47246E-08
1005.86438	1.47366E-08
1006.00269	1.47491E-08
1006.14099	1.47619E-08
1006.27930	1.47751E-08
1006.41754	1.47886E-08
1006.55585	1.48026E-08
1006.69415	1.48168E-08
1006.83246	1.48315E-08
1006.97076	1.48464E-08
1007.10907	1.48617E-08
1007.24738	1.48773E-08
1007.38568	1.48932E-08
1007.52399	1.49094E-08
1007.66229	1.49259E-08
1007.80060	1.49426E-08
1007.93890	1.49596E-08
1008.07721	1.49768E-08
1008.21552	1.49942E-08
1008.35376	1.50118E-08
1008.49207	1.50296E-08
1008.63037	1.50476E-08
1008.76868	1.50658E-08
1008.90698	1.50841E-08
1009.04529	1.51025E-08
1009.18359	1.51211E-08
1009.32190	1.51397E-08
1009.46021	1.51585E-08
1009.59851	1.51773E-08
1009.73682	1.51961E-08
1009.87512	1.52150E-08
1010.01343	1.52340E-08
1010.15167	1.52529E-08
1010.28998	1.52719E-08
1010.42828	1.52908E-08
1010.56659	1.53097E-08
1010.70490	1.53286E-08
1010.84320	1.53474E-08
1010.98151	1.53661E-08
1011.11981	1.53848E-08
1011.25812	1.54034E-08
1011.39642	1.54219E-08
1011.53473	1.54404E-08
1011.67304	1.54587E-08
1011.81134	1.54768E-08
1011.94965	1.54949E-08
1012.08789	1.55128E-08
1012.22620	1.55306E-08
1012.36450	1.55483E-08
1012.50281	1.55658E-08
1012.64111	1.55832E-08
1012.77942	1.56004E-08
1012.91773	1.56174E-08
1013.05603	1.56343E-08
1013.19434	1.56511E-08
1013.33264	1.56676E-08
1013.47095	1.56841E-08
1013.60925	1.57003E-08
1013.74756	1.57164E-08
1013.88580	1.57324E-08
1014.02411	1.57482E-08
1014.16242	1.57639E-08
1014.30072	1.57794E-08
1014.43903	1.57948E-08
1014.57733	1.58101E-08
1014.71564	1.58253E-08
1014.85394	1.58403E-08
1014.99225	1.58553E-08
1015.13055	1.58701E-08
1015.26886	1.58849E-08
1015.40717	1.58996E-08
1015.54547	1.59142E-08
1015.68378	1.59288E-08
1015.82202	1.59433E-08
1015.96033	1.59577E-08
1016.09863	1.59722E-08
1016.23694	1.59866E-08
1016.37524	1.60010E-08
1016.51355	1.60154E-08
1016.65186	1.60299E-08
1016.79016	1.60443E-08
1016.92847	1.60588E-08
1017.06677	1.60734E-08
1017.20508	1.60880E-08
1017.34338	1.61026E-08
1017.48169	1.61174E-08
1017.61993	1.61322E-08
1017.75824	1.61472E-08
1017.89655	1.61622E-08
1018.03485	1.61774E-08
1018.17316	1.61927E-08
1018.31146	1.62081E-08
1018.44977	1.62236E-08
1018.58807	1.62394E-08
1018.72638	1.62552E-08
1018.86469	1.62712E-08
1019.00299	1.62874E-08
1019.14130	1.63038E-08
1019.27960	1.63203E-08
1019.41791	1.63370E-08
1019.55615	1.63539E-08
1019.69446	1.63709E-08
1019.83276	1.63881E-08
1019.97107	1.64056E-08
1020.10938	1.64231E-08
1020.24768	1.64409E-08
1020.38599	1.64588E-08
1020.52429	1.64769E-08
1020.66260	1.64952E-08
1020.80090	1.65136E-08
1020.93921	1.65322E-08
1021.07752	1.65509E-08
1021.21582	1.65698E-08
1021.35413	1.65888E-08
1021.49237	1.66079E-08
1021.63068	1.66271E-08
1021.76898	1.66465E-08
1021.90729	1.66659E-08
1022.04559	1.66854E-08
1022.18390	1.67049E-08
1022.32221	1.67245E-08
1022.46051	1.67442E-08
1022.59882	1.67638E-08
1022.73712	1.67834E-08
1022.87543	1.68031E-08
1023.01373	1.68226E-08
1023.15204	1.68422E-08
1023.29028	1.68617E-08
1023.42859	1.68811E-08
1023.56690	1.69003E-08
1023.70520	1.69195E-08
1023.84351	1.69386E-08
1023.98181	1.69574E-08
1024.12012	1.69762E-08
1024.25842	1.69947E-08
1024.39673	1.70130E-08
1024.53503	1.70311E-08
1024.67334	1.70489E-08
1024.81165	1.70665E-08
1024.94995	1.70838E-08
1025.08826	1.71008E-08
1025.22656	1.71175E-08
1025.36487	1.71338E-08
1025.50317	1.71498E-08
1025.64148	1.71655E-08
1025.77979	1.71808E-08
1025.91809	1.71957E-08
1026.05627	1.72102E-08
1026.19458	1.72244E-08
1026.33289	1.72381E-08
1026.47119	1.72513E-08
1026.60950	1.72642E-08
1026.74780	1.72766E-08
1026.88611	1.72886E-08
1027.02441	1.73002E-08
1027.16272	1.73113E-08
1027.30103	1.73219E-08
1027.43933	1.73321E-08
1027.57764	1.73418E-08
1027.71594	1.73511E-08
1027.85425	1.73600E-08
1027.99255	1.73684E-08
1028.13086	1.73763E-08
1028.26917	1.73838E-08
1028.40747	1.73909E-08
1028.54578	1.73975E-08
1028.68408	1.74038E-08
1028.82239	1.74096E-08
1028.96069	1.74150E-08
1029.09900	1.74201E-08
1029.23731	1.74248E-08
1029.37561	1.74291E-08
1029.51392	1.74331E-08
1029.65222	1.74367E-08
1029.79053	1.74401E-08
1029.92871	1.74431E-08
1030.06702	1.74459E-08
1030.20532	1.74483E-08
1030.34363	1.74506E-08
1030.48193	1.74526E-08
1030.62024	1.74544E-08
1030.75855	1.74561E-08
1030.89685	1.74575E-08
1031.03516	1.74588E-08
1031.17346	1.74600E-08
1031.31177	1.74611E-08
1031.45007	1.74621E-08
1031.58838	1.74630E-08
1031.72669	1.74639E-08
1031.86499	1.74647E-08
1032.00330	1.74656E-08
1032.14160	1.74664E-08
1032.27991	1.74673E-08
1032.41821	1.74682E-08
1032.55652	1.74692E-08
1032.69482	1.74704E-08
1032.83313	1.74716E-08
1032.97144	1.74729E-08
1033.10974	1.74744E-08
1033.24805	1.74760E-08
1033.38635	1.74779E-08
1033.52466	1.74798E-08
1033.66284	1.74820E-08
1033.80115	1.74844E-08
1033.93945	1.74870E-08
1034.07776	1.74899E-08
1034.21606	1.74930E-08
1034.35437	1.74964E-08
1034.49268	1.75000E-08
1034.63098	1.75039E-08
1034.76929	1.75081E-08
1034.90759	1.75126E-08
1035.04590	1.75173E-08
1035.18420	1.75223E-08
1035.32251	1.75276E-08
1035.46082	1.75332E-08
1035.59912	1.75391E-08
1035.73743	1.75453E-08
1035.87573	1.75518E-08
1036.01404	1.75585E-08
1036.15234	1.75655E-08
1036.29065	1.75728E-08
1036.42896	1.75803E-08
1036.56726	1.75881E-08
1036.70557	1.75961E-08
1036.84387	1.76044E-08
1036.98218	1.76128E-08
1037.12048	1.76215E-08
1037.25879	1.76303E-08
1037.39697	1.76393E-08
1037.53528	1.76485E-08
1037.67358	1.76578E-08
1037.81189	1.76673E-08
1037.95020	1.76768E-08
1038.08850	1.76864E-08
1038.22681	1.76961E-08
1038.36511	1.77059E-08
1038.50342	1.77157E-08
1038.64172	1.77255E-08
1038.78003	1.77353E-08
1038.91834	1.77450E-08
1039.05664	1.77547E-08
1039.19495	1.77644E-08
1039.33325	1.77739E-08
1039.47156	1.77833E-08
1039.60986	1.77926E-08
1039.74817	1.78017E-08
1039.88648	1.78106E-08
1040.02478	1.78194E-08
1040.16309	1.78279E-08
1040.30139	1.78362E-08
1040.43970	1.78442E-08
1040.57800	1.78520E-08
1040.71631	1.78595E-08
1040.85461	1.78666E-08
1040.99292	1.78735E-08
1041.13110	1.78800E-08
1041.26941	1.78862E-08
1041.40772	1.78920E-08
1041.54602	1.78974E-08
1041.68433	1.79024E-08
1041.82263	1.79071E-08
1041.96094	1.79113E-08
1042.09924	1.79152E-08
1042.23755	1.79186E-08
1042.37585	1.79216E-08
1042.51416	1.79242E-08
1042.65247	1.79264E-08
1042.79077	1.79281E-08
1042.92908	1.79295E-08
1043.06738	1.79304E-08
1043.20569	1.79309E-08
1043.34399	1.79310E-08
1043.48230	1.79307E-08
1043.62061	1.79300E-08
1043.75891	1.79289E-08
1043.89722	1.79274E-08
1044.03552	1.79256E-08
1044.17383	1.79235E-08
1044.31213	1.79210E-08
1044.45044	1.79182E-08
1044.58875	1.79150E-08
1044.72705	1.79116E-08
1044.86523	1.79080E-08
1045.00354	1.79041E-08
1045.14185	1.79000E-08
1045.28015	1.78956E-08
1045.41846	1.78911E-08
1045.55676	1.78865E-08
1045.69507	1.78817E-08
1045.83337	1.78768E-08
1045.97168	1.78718E-08
1046.10999	1.78667E-08
1046.24829	1.78616E-08
1046.38660	1.78565E-08
1046.52490	1.78514E-08
1046.66321	1.78464E-08
1046.80151	1.78414E-08
1046.93982	1.78365E-08
1047.07813	1.78317E-08
1047.21643	1.78271E-08
1047.35474	1.78226E-08
1047.49304	1.78183E-08
1047.63135	1.78142E-08
1047.76965	1.78103E-08
1047.90796	1.78067E-08
1048.04627	1.78034E-08
1048.18457	1.78004E-08
1048.32288	1.77977E-08
1048.46118	1.77953E-08
1048.59937	1.77933E-08
1048.73767	1.77917E-08
1048.87598	1.77904E-08
1049.01428	1.77896E-08
1049.15259	1.77891E-08
1049.29089	1.77891E-08
1049.42920	1.77895E-08
1049.56751	1.77904E-08
1049.70581	1.77918E-08
1049.84412	1.77936E-08
1049.98242	1.77958E-08
1050.12073	1.77986E-08
1050.25903	1.78019E-08
1050.39734	1.78056E-08
1050.53565	1.78098E-08
1050.67395	1.78145E-08
1050.81226	1.78197E-08
1050.95056	1.78254E-08
1051.08887	1.78315E-08
1051.22717	1.78381E-08
1051.36548	1.78452E-08
1051.50378	1.78526E-08
1051.64209	1.78606E-08
1051.78040	1.78690E-08
1051.91870	1.78777E-08
1052.05701	1.78869E-08
1052.19531	1.78965E-08
1052.33350	1.79065E-08
1052.47180	1.79168E-08
1052.61011	1.79274E-08
1052.74841	1.79384E-08
1052.88672	1.79497E-08
1053.02502	1.79612E-08
1053.16333	1.79730E-08
1053.30164	1.79850E-08
1053.43994	1.79972E-08
1053.57825	1.80096E-08
1053.71655	1.80221E-08
1053.85486	1.80348E-08
1053.99316	1.80476E-08
1054.13147	1.80605E-08
1054.26978	1.80734E-08
1054.40808	1.80864E-08
1054.54639	1.80994E-08
1054.68469	1.81123E-08
1054.82300	1.81252E-08
1054.96130	1.81380E-08
1055.09961	1.81507E-08
1055.23792	1.81633E-08
1055.37622	1.81757E-08
1055.51453	1.81879E-08
1055.65283	1.82000E-08
1055.79114	1.82118E-08
1055.92944	1.82234E-08
1056.06763	1.82347E-08
1056.20593	1.82456E-08
1056.34424	1.82563E-08
1056.48254	1.82667E-08
1056.62085	1.82767E-08
1056.75916	1.82863E-08
1056.89746	1.82956E-08
1057.03577	1.83045E-08
1057.17407	1.83129E-08
1057.31238	1.83210E-08
1057.45068	1.83287E-08
1057.58899	1.83359E-08
1057.72730	1.83427E-08
1057.86560	1.83490E-08
1058.00391	1.83548E-08
1058.14221	1.83602E-08
1058.28052	1.83652E-08
1058.41882	1.83697E-08
1058.55713	1.83737E-08
1058.69544	1.83774E-08
1058.83374	1.83806E-08
1058.97205	1.83833E-08
1059.11035	1.83857E-08
1059.24866	1.83876E-08
1059.38696	1.83892E-08
1059.52527	1.83904E-08
1059.66357	1.83912E-08
1059.80188	1.83916E-08
1059.94006	1.83918E-08
1060.07837	1.83916E-08
1060.21668	1.83912E-08
1060.35498	1.83905E-08
1060.49329	1.83896E-08
1060.63159	1.83884E-08
1060.76990	1.83870E-08
1060.90820	1.83855E-08
1061.04651	1.83839E-08
1061.18481	1.83822E-08
1061.32312	1.83803E-08
1061.46143	1.83785E-08
1061.59973	1.83766E-08
1061.73804	1.83747E-08
1061.87634	1.83729E-08
1062.01465	1.83711E-08
1062.15295	1.83694E-08
1062.29126	1.83679E-08
1062.42957	1.83666E-08
1062.56787	1.83654E-08
1062.70618	1.83645E-08
1062.84448	1.83638E-08
1062.98279	1.83634E-08
1063.12109	1.83633E-08
1063.25940	1.83636E-08
1063.39771	1.83642E-08
1063.53601	1.83652E-08
1063.67419	1.83666E-08
1063.81250	1.83684E-08
1063.95081	1.83707E-08
1064.08911	1.83735E-08
1064.22742	1.83767E-08
1064.36572	1.83805E-08
1064.50403	1.83848E-08
1064.64233	1.83896E-08
1064.78064	1.83950E-08
1064.91895	1.84010E-08
1065.05725	1.84075E-08
1065.19556	1.84146E-08
1065.33386	1.84224E-08
1065.47217	1.84307E-08
1065.61047	1.84396E-08
1065.74878	1.84491E-08
1065.88709	1.84593E-08
1066.02539	1.84700E-08
1066.16370	1.84813E-08
1066.30200	1.84933E-08
1066.44031	1.85058E-08
1066.57861	1.85188E-08
1066.71692	1.85325E-08
1066.85523	1.85467E-08
1066.99353	1.85614E-08
1067.13184	1.85767E-08
1067.27014	1.85924E-08
1067.40833	1.86087E-08
1067.54663	1.86254E-08
1067.68494	1.86426E-08
1067.82324	1.86601E-08
1067.96155	1.86781E-08
1068.09985	1.86965E-08
1068.23816	1.87152E-08
1068.37647	1.87343E-08
1068.51477	1.87536E-08
1068.65308	1.87732E-08
1068.79138	1.87931E-08
1068.92969	1.88132E-08
1069.06799	1.88335E-08
1069.20630	1.88539E-08
1069.34460	1.88744E-08
1069.48291	1.88950E-08
1069.62122	1.89157E-08
1069.75952	1.89365E-08
1069.89783	1.89572E-08
1070.03613	1.89779E-08
1070.17444	1.89985E-08
1070.31274	1.90189E-08
1070.45105	1.90393E-08
1070.58936	1.90595E-08
1070.72766	1.90795E-08
1070.86597	1.90993E-08
1071.00427	1.91188E-08
1071.14246	1.91380E-08
1071.28076	1.91570E-08
1071.41907	1.91755E-08
1071.55737	1.91937E-08
1071.69568	1.92115E-08
1071.83398	1.92289E-08
1071.97229	1.92458E-08
1072.11060	1.92623E-08
1072.24890	1.92783E-08
1072.38721	1.92937E-08
1072.52551	1.93087E-08
1072.66382	1.93231E-08
1072.80212	1.93370E-08
1072.94043	1.93503E-08
1073.07874	1.93631E-08
1073.21704	1.93752E-08
1073.35535	1.93868E-08
1073.49365	1.93978E-08
1073.63196	1.94082E-08
1073.77026	1.94180E-08
1073.90857	1.94272E-08
1074.04688	1.94358E-08
1074.18518	1.94439E-08
1074.32349	1.94513E-08
1074.46179	1.94583E-08
1074.60010	1.94646E-08
1074.73840	1.94705E-08
1074.87659	1.94758E-08
1075.01489	1.94806E-08
1075.15320	1.94849E-08
1075.29150	1.94888E-08
1075.42981	1.94922E-08
1075.56812	1.94953E-08
1075.70642	1.94979E-08
1075.84473	1.95002E-08
1075.98303	1.95022E-08
1076.12134	1.95039E-08
1076.25964	1.95054E-08
1076.39795	1.95067E-08
1076.53626	1.95078E-08
1076.67456	1.95088E-08
1076.81287	1.95096E-08
1076.95117	1.95104E-08
1077.08948	1.95112E-08
1077.22778	1.95120E-08
1077.36609	1.95129E-08
1077.50440	1.95139E-08
1077.64270	1.95150E-08
1077.78101	1.95164E-08
1077.91931	1.95179E-08
1078.05762	1.95198E-08
1078.19592	1.95220E-08
1078.33423	1.95246E-08
1078.47253	1.95275E-08
1078.61072	1.95309E-08
1078.74902	1.95348E-08
1078.88733	1.95392E-08
1079.02564	1.95442E-08
1079.16394	1.95497E-08
1079.30225	1.95559E-08
1079.44055	1.95628E-08
1079.57886	1.95703E-08
1079.71716	1.95786E-08
1079.85547	1.95876E-08
1079.99377	1.95974E-08
1080.13208	1.96080E-08
1080.27039	1.96195E-08
1080.40869	1.96317E-08
1080.54700	1.96449E-08
1080.68530	1.96590E-08
1080.82361	1.96739E-08
1080.96191	1.96898E-08
1081.10022	1.97066E-08
1081.23853	1.97244E-08
1081.37683	1.97432E-08
1081.51514	1.97628E-08
1081.65344	1.97834E-08
1081.79175	1.98050E-08
1081.93005	1.98274E-08
1082.06836	1.98508E-08
1082.20667	1.98751E-08
1082.34485	1.99003E-08
1082.48315	1.99264E-08
1082.62146	1.99533E-08
1082.75977	1.99811E-08
1082.89807	2.00097E-08
1083.03638	2.00390E-08
1083.17468	2.00692E-08
1083.31299	2.01001E-08
1083.45129	2.01317E-08
1083.58960	2.01639E-08
1083.72791	2.01968E-08
1083.86621	2.02303E-08
1084.00452	2.02643E-08
1084.14282	2.02989E-08
1084.28113	2.03338E-08
1084.41943	2.03693E-08
1084.55774	2.04050E-08
1084.69605	2.04411E-08
1084.83435	2.04774E-08
1084.97266	2.05140E-08
1085.11096	2.05507E-08
1085.24927	2.05876E-08
1085.38757	2.06244E-08
1085.52588	2.06612E-08
1085.66419	2.06980E-08
1085.80249	2.07346E-08
1085.94080	2.07711E-08
1086.07898	2.08073E-08
1086.21729	2.08431E-08
1086.35559	2.08787E-08
1086.49390	2.09137E-08
1086.63220	2.09483E-08
1086.77051	2.09824E-08
1086.90881	2.10159E-08
1087.04712	2.10486E-08
1087.18543	2.10807E-08
1087.32373	2.11120E-08
1087.46204	2.11425E-08
1087.60034	2.11721E-08
1087.73865	2.12008E-08
1087.87695	2.12285E-08
1088.01526	2.12552E-08
1088.15356	2.12809E-08
1088.29187	2.13054E-08
1088.43018	2.13289E-08
1088.56848	2.13512E-08
1088.70679	2.13724E-08
1088.84509	2.13923E-08
1088.98340	2.14110E-08
1089.12170	2.14285E-08
1089.26001	2.14447E-08
1089.39832	2.14596E-08
1089.53662	2.14734E-08
1089.67493	2.14858E-08
1089.81323	2.14970E-08
1089.95142	2.15069E-08
1090.08972	2.15156E-08
1090.22803	2.15232E-08
1090.36633	2.15294E-08
1090.50464	2.15346E-08
1090.64294	2.15386E-08
1090.78125	2.15415E-08
1090.91956	2.15433E-08
1091.05786	2.15442E-08
1091.19617	2.15441E-08
1091.33447	2.15430E-08
1091.47278	2.15411E-08
1091.61108	2.15384E-08
1091.74939	2.15349E-08
1091.88770	2.15308E-08
1092.02600	2.15261E-08
1092.16431	2.15208E-08
1092.30261	2.15151E-08
1092.44092	2.15090E-08
1092.57922	2.15026E-08
1092.71753	2.14959E-08
1092.85584	2.14892E-08
1092.99414	2.14823E-08
1093.13245	2.14755E-08
1093.27075	2.14687E-08
1093.40906	2.14622E-08
1093.54736	2.14558E-08
1093.68555	2.14498E-08
1093.82385	2.14442E-08
1093.96216	2.14391E-08
1094.10046	2.14346E-08
1094.23877	2.14307E-08
1094.37708	2.14274E-08
1094.51538	2.14251E-08
1094.65369	2.14235E-08
1094.79199	2.14228E-08
1094.93030	2.14231E-08
1095.06860	2.14244E-08
1095.20691	2.14268E-08
1095.34522	2.14304E-08
1095.48352	2.14352E-08
1095.62183	2.14411E-08
1095.76013	2.14484E-08
1095.89844	2.14569E-08
1096.03674	2.14668E-08
1096.17505	2.14780E-08
1096.31335	2.14907E-08
1096.45166	2.15048E-08
1096.58997	2.15203E-08
1096.72827	2.15372E-08
1096.86658	2.15557E-08
1097.00488	2.15755E-08
1097.14319	2.15968E-08
1097.28149	2.16195E-08
1097.41968	2.16437E-08
1097.55798	2.16693E-08
1097.69629	2.16962E-08
1097.83460	2.17245E-08
1097.97290	2.17542E-08
1098.11121	2.17852E-08
1098.24951	2.18174E-08
1098.38782	2.18508E-08
1098.52612	2.18854E-08
1098.66443	2.19212E-08
1098.80273	2.19580E-08
1098.94104	2.19958E-08
1099.07935	2.20345E-08
1099.21765	2.20741E-08
1099.35596	2.21145E-08
1099.49426	2.21556E-08
1099.63257	2.21974E-08
1099.77087	2.22397E-08
1099.90918	2.22825E-08
1100.04749	2.23258E-08
1100.18579	2.23693E-08
1100.32410	2.24132E-08
1100.46240	2.24571E-08
1100.60071	2.25011E-08
1100.73901	2.25451E-08
1100.87732	2.25890E-08
1101.01563	2.26326E-08
1101.15381	2.26759E-08
1101.29211	2.27188E-08
1101.43042	2.27612E-08
1101.56873	2.28031E-08
1101.70703	2.28442E-08
1101.84534	2.28846E-08
1101.98364	2.29242E-08
1102.12195	2.29628E-08
1102.26025	2.30005E-08
1102.39856	2.30370E-08
1102.53687	2.30724E-08
1102.67517	2.31065E-08
1102.81348	2.31394E-08
1102.95178	2.31709E-08
1103.09009	2.32010E-08
1103.22839	2.32296E-08
1103.36670	2.32567E-08
1103.50501	2.32822E-08
1103.64331	2.33062E-08
1103.78162	2.33285E-08
1103.91992	2.33492E-08
1104.05823	2.33682E-08
1104.19653	2.33856E-08
1104.33484	2.34012E-08
1104.47315	2.34153E-08
1104.61145	2.34277E-08
1104.74976	2.34385E-08
1104.88794	2.34477E-08
1105.02625	2.34553E-08
1105.16455	2.34614E-08
1105.30286	2.34661E-08
1105.44116	2.34693E-08
1105.57947	2.34712E-08
1105.71777	2.34719E-08
1105.85608	2.34713E-08
1105.99439	2.34697E-08
1106.13269	2.34671E-08
1106.27100	2.34636E-08
1106.40930	2.34593E-08
1106.54761	2.34544E-08
1106.68591	2.34489E-08
1106.82422	2.34430E-08
1106.96252	2.34368E-08
1107.10083	2.34305E-08
1107.23914	2.34242E-08
1107.37744	2.34180E-08
1107.51575	2.34121E-08
1107.65405	2.34067E-08
1107.79236	2.34018E-08
1107.93066	2.33978E-08
1108.06897	2.33946E-08
1108.20728	2.33925E-08
1108.34558	2.33917E-08
1108.48389	2.33922E-08
1108.62207	2.33943E-08
1108.76038	2.33980E-08
1108.89868	2.34036E-08
1109.03699	2.34112E-08
1109.17529	2.34210E-08
1109.31360	2.34330E-08
1109.45190	2.34475E-08
1109.59021	2.34645E-08
1109.72852	2.34843E-08
1109.86682	2.35068E-08
1110.00513	2.35323E-08
1110.14343	2.35609E-08
1110.28174	2.35926E-08
1110.42004	2.36276E-08
1110.55835	2.36660E-08
1110.69666	2.37079E-08
1110.83496	2.37534E-08
1110.97327	2.38024E-08
1111.11157	2.38553E-08
1111.24988	2.39119E-08
1111.38818	2.39723E-08
1111.52649	2.40367E-08
1111.66480	2.41050E-08
1111.80310	2.41773E-08
1111.94141	2.42536E-08
1112.07971	2.43340E-08
1112.21802	2.44183E-08
1112.35620	2.45068E-08
1112.49451	2.45994E-08
1112.63281	2.46960E-08
1112.77112	2.47966E-08
1112.90942	2.49013E-08
1113.04773	2.50100E-08
1113.18604	2.51226E-08
1113.32434	2.52392E-08
1113.46265	2.53596E-08
1113.60095	2.54838E-08
1113.73926	2.56118E-08
1113.87756	2.57435E-08
1114.01587	2.58787E-08
1114.15418	2.60175E-08
1114.29248	2.61597E-08
1114.43079	2.63051E-08
1114.56909	2.64538E-08
1114.70740	2.66055E-08
1114.84570	2.67603E-08
1114.98401	2.69178E-08
1115.12231	2.70781E-08
1115.26062	2.72409E-08
1115.39893	2.74061E-08
1115.53723	2.75736E-08
1115.67554	2.77431E-08
1115.81384	2.79146E-08
1115.95215	2.80877E-08
1116.09033	2.82624E-08
1116.22864	2.84385E-08
1116.36694	2.86157E-08
1116.50525	2.87939E-08
1116.64356	2.89728E-08
1116.78186	2.91522E-08
1116.92017	2.93318E-08
1117.05847	2.95114E-08
1117.19678	2.96907E-08
1117.33508	2.98695E-08
1117.47339	3.00474E-08
1117.61169	3.02243E-08
1117.75000	3.03997E-08
1117.88831	3.05734E-08
1118.02661	3.07452E-08
1118.16492	3.09145E-08
1118.30322	3.10812E-08
1118.44153	3.12450E-08
1118.57983	3.14053E-08
1118.71814	3.15621E-08
1118.85645	3.17148E-08
1118.99475	3.18633E-08
1119.13306	3.20073E-08
1119.27136	3.21464E-08
1119.40967	3.22803E-08
1119.54797	3.24088E-08
1119.68628	3.25317E-08
1119.82459	3.26487E-08
1119.96277	3.27596E-08
1120.10107	3.28643E-08
1120.23938	3.29626E-08
1120.37769	3.30545E-08
1120.51599	3.31399E-08
1120.65430	3.32188E-08
1120.79260	3.32912E-08
1120.93091	3.33571E-08
1121.06921	3.34167E-08
1121.20752	3.34702E-08
1121.34583	3.35176E-08
1121.48413	3.35592E-08
1121.62244	3.35954E-08
1121.76074	3.36263E-08
1121.89905	3.36523E-08
1122.03735	3.36738E-08
1122.17566	3.36912E-08
1122.31397	3.37049E-08
1122.45227	3.37154E-08
1122.59058	3.37231E-08
1122.72888	3.37286E-08
1122.86719	3.37322E-08
1123.00549	3.37344E-08
1123.14380	3.37360E-08
1123.28210	3.37374E-08
1123.42041	3.37390E-08
1123.55872	3.37415E-08
1123.69690	3.37455E-08
1123.83521	3.37513E-08
1123.97351	3.37596E-08
1124.11182	3.37708E-08
1124.25012	3.37856E-08
1124.38843	3.38044E-08
1124.52673	3.38277E-08
1124.66504	3.38562E-08
1124.80335	3.38901E-08
1124.94165	3.39301E-08
1125.07996	3.39765E-08
1125.21826	3.40300E-08
1125.35657	3.40909E-08
1125.49487	3.41597E-08
1125.63318	3.42369E-08
1125.77148	3.43230E-08
1125.90979	3.44183E-08
1126.04810	3.45234E-08
1126.18640	3.46387E-08
1126.32471	3.47647E-08
1126.46301	3.49018E-08
1126.60132	3.50505E-08
1126.73962	3.52112E-08
1126.87793	3.53845E-08
1127.01624	3.55708E-08
1127.15454	3.57707E-08
1127.29285	3.59847E-08
1127.43103	3.62134E-08
1127.56934	3.64573E-08
1127.70764	3.67172E-08
1127.84595	3.69937E-08
1127.98425	3.72879E-08
1128.12256	3.76004E-08
1128.26086	3.79323E-08
1128.39917	3.82848E-08
1128.53748	3.86590E-08
1128.67578	3.90566E-08
1128.81409	3.94790E-08
1128.95239	3.99284E-08
1129.09070	4.04073E-08
1129.22900	4.09187E-08
1129.36731	4.14658E-08
1129.50562	4.20532E-08
1129.64392	4.26861E-08
1129.78223	4.33711E-08
1129.92053	4.41165E-08
1130.05884	4.49334E-08
1130.19714	4.58355E-08
1130.33545	4.68416E-08
1130.47376	4.79765E-08
1130.61206	4.92745E-08
1130.75037	5.07840E-08
1130.88867	5.25752E-08
1131.02698	5.47538E-08
1131.16516	5.74864E-08
1131.30347	6.10517E-08
1131.44177	6.59511E-08
1131.58008	7.31858E-08
1131.71838	8.50773E-08
1131.85669	1.08487E-07
1131.99500	1.76294E-07
1132.13330	2.57593E-06
1132.27161	-1.22801E-07
1132.40991	-4.29206E-08
1132.54822	-1.89482E-08
1132.68652	-9.27886E-09
1132.82483	-6.54094E-09