Wavenumber	NESR 15.67 cm-1
1019.53296	5.14600E-09
1019.65741	5.14272E-09
1019.78186	5.13826E-09
1019.90631	5.13264E-09
1020.03076	5.12586E-09
1020.15521	5.11795E-09
1020.27966	5.10894E-09
1020.40411	5.09885E-09
1020.52863	5.08772E-09
1020.65308	5.07558E-09
1020.77753	5.06248E-09
1020.90198	5.04845E-09
1021.02643	5.03355E-09
1021.15088	5.01782E-09
1021.27533	5.00131E-09
1021.39978	4.98406E-09
1021.52423	4.96613E-09
1021.64868	4.94756E-09
1021.77313	4.92839E-09
1021.89758	4.90870E-09
1022.02203	4.88849E-09
1022.14648	4.86784E-09
1022.27094	4.84677E-09
1022.39545	4.82533E-09
1022.51990	4.80355E-09
1022.64435	4.78149E-09
1022.76880	4.75916E-09
1022.89325	4.73660E-09
1023.01770	4.71384E-09
1023.14215	4.69091E-09
1023.26660	4.66783E-09
1023.39105	4.64462E-09
1023.51550	4.62133E-09
1023.63995	4.59796E-09
1023.76440	4.57453E-09
1023.88886	4.55105E-09
1024.01331	4.52757E-09
1024.13782	4.50406E-09
1024.26221	4.48058E-09
1024.38672	4.45711E-09
1024.51111	4.43367E-09
1024.63562	4.41027E-09
1024.76001	4.38692E-09
1024.88452	4.36363E-09
1025.00891	4.34041E-09
1025.13342	4.31726E-09
1025.25794	4.29419E-09
1025.38232	4.27120E-09
1025.50684	4.24831E-09
1025.63123	4.22552E-09
1025.75574	4.20282E-09
1025.88013	4.18024E-09
1026.00464	4.15777E-09
1026.12903	4.13540E-09
1026.25354	4.11315E-09
1026.37793	4.09102E-09
1026.50244	4.06901E-09
1026.62683	4.04712E-09
1026.75134	4.02536E-09
1026.87573	4.00372E-09
1027.00024	3.98221E-09
1027.12476	3.96082E-09
1027.24915	3.93957E-09
1027.37366	3.91845E-09
1027.49805	3.89747E-09
1027.62256	3.87662E-09
1027.74695	3.85590E-09
1027.87146	3.83533E-09
1027.99585	3.81488E-09
1028.12036	3.79458E-09
1028.24475	3.77441E-09
1028.36926	3.75437E-09
1028.49365	3.73448E-09
1028.61816	3.71472E-09
1028.74255	3.69510E-09
1028.86707	3.67562E-09
1028.99158	3.65628E-09
1029.11597	3.63707E-09
1029.24048	3.61801E-09
1029.36487	3.59908E-09
1029.48938	3.58029E-09
1029.61377	3.56164E-09
1029.73828	3.54313E-09
1029.86267	3.52475E-09
1029.98718	3.50651E-09
1030.11157	3.48840E-09
1030.23608	3.47044E-09
1030.36047	3.45260E-09
1030.48499	3.43490E-09
1030.60938	3.41733E-09
1030.73389	3.39990E-09
1030.85828	3.38260E-09
1030.98279	3.36543E-09
1031.10730	3.34839E-09
1031.23169	3.33149E-09
1031.35620	3.31471E-09
1031.48059	3.29806E-09
1031.60510	3.28154E-09
1031.72949	3.26515E-09
1031.85400	3.24888E-09
1031.97839	3.23274E-09
1032.10291	3.21672E-09
1032.22730	3.20082E-09
1032.35181	3.18504E-09
1032.47620	3.16939E-09
1032.60071	3.15385E-09
1032.72510	3.13844E-09
1032.84961	3.12314E-09
1032.97412	3.10796E-09
1033.09851	3.09289E-09
1033.22302	3.07793E-09
1033.34741	3.06309E-09
1033.47192	3.04836E-09
1033.59631	3.03374E-09
1033.72083	3.01923E-09
1033.84522	3.00482E-09
1033.96973	2.99052E-09
1034.09412	2.97633E-09
1034.21863	2.96224E-09
1034.34302	2.94825E-09
1034.46753	2.93436E-09
1034.59192	2.92057E-09
1034.71643	2.90688E-09
1034.84094	2.89329E-09
1034.96533	2.87979E-09
1035.08984	2.86639E-09
1035.21423	2.85307E-09
1035.33875	2.83986E-09
1035.46314	2.82673E-09
1035.58765	2.81368E-09
1035.71204	2.80073E-09
1035.83655	2.78786E-09
1035.96094	2.77508E-09
1036.08545	2.76238E-09
1036.20984	2.74976E-09
1036.33435	2.73722E-09
1036.45874	2.72477E-09
1036.58325	2.71239E-09
1036.70776	2.70009E-09
1036.83215	2.68786E-09
1036.95667	2.67571E-09
1037.08106	2.66363E-09
1037.20557	2.65163E-09
1037.32996	2.63970E-09
1037.45447	2.62784E-09
1037.57886	2.61604E-09
1037.70337	2.60432E-09
1037.82776	2.59266E-09
1037.95227	2.58107E-09
1038.07666	2.56954E-09
1038.20117	2.55808E-09
1038.32556	2.54668E-09
1038.45007	2.53534E-09
1038.57459	2.52407E-09
1038.69898	2.51285E-09
1038.82349	2.50170E-09
1038.94788	2.49060E-09
1039.07239	2.47956E-09
1039.19678	2.46858E-09
1039.32129	2.45765E-09
1039.44568	2.44678E-09
1039.57019	2.43596E-09
1039.69458	2.42520E-09
1039.81909	2.41450E-09
1039.94348	2.40384E-09
1040.06799	2.39324E-09
1040.19238	2.38269E-09
1040.31690	2.37220E-09
1040.44141	2.36175E-09
1040.56580	2.35136E-09
1040.69031	2.34101E-09
1040.81470	2.33072E-09
1040.93921	2.32047E-09
1041.06360	2.31028E-09
1041.18811	2.30013E-09
1041.31250	2.29003E-09
1041.43701	2.27998E-09
1041.56140	2.26998E-09
1041.68591	2.26002E-09
1041.81030	2.25011E-09
1041.93481	2.24025E-09
1042.05920	2.23044E-09
1042.18372	2.22067E-09
1042.30823	2.21095E-09
1042.43262	2.20128E-09
1042.55713	2.19165E-09
1042.68152	2.18207E-09
1042.80603	2.17253E-09
1042.93042	2.16305E-09
1043.05493	2.15360E-09
1043.17932	2.14421E-09
1043.30383	2.13486E-09
1043.42822	2.12555E-09
1043.55273	2.11629E-09
1043.67712	2.10708E-09
1043.80164	2.09791E-09
1043.92603	2.08879E-09
1044.05054	2.07972E-09
1044.17505	2.07069E-09
1044.29944	2.06171E-09
1044.42395	2.05277E-09
1044.54834	2.04388E-09
1044.67285	2.03503E-09
1044.79724	2.02623E-09
1044.92175	2.01748E-09
1045.04614	2.00877E-09
1045.17065	2.00011E-09
1045.29504	1.99150E-09
1045.41956	1.98293E-09
1045.54395	1.97441E-09
1045.66846	1.96594E-09
1045.79285	1.95751E-09
1045.91736	1.94912E-09
1046.04187	1.94079E-09
1046.16626	1.93250E-09
1046.29077	1.92426E-09
1046.41516	1.91606E-09
1046.53967	1.90791E-09
1046.66406	1.89980E-09
1046.78857	1.89174E-09
1046.91296	1.88373E-09
1047.03748	1.87577E-09
1047.16187	1.86785E-09
1047.28638	1.85998E-09
1047.41077	1.85215E-09
1047.53528	1.84437E-09
1047.65967	1.83663E-09
1047.78418	1.82894E-09
1047.90869	1.82129E-09
1048.03308	1.81369E-09
1048.15759	1.80614E-09
1048.28198	1.79863E-09
1048.40649	1.79117E-09
1048.53088	1.78375E-09
1048.65540	1.77638E-09
1048.77979	1.76905E-09
1048.90430	1.76176E-09
1049.02869	1.75452E-09
1049.15320	1.74733E-09
1049.27759	1.74017E-09
1049.40210	1.73307E-09
1049.52649	1.72600E-09
1049.65100	1.71898E-09
1049.77551	1.71200E-09
1049.89990	1.70507E-09
1050.02441	1.69817E-09
1050.14880	1.69132E-09
1050.27332	1.68451E-09
1050.39771	1.67775E-09
1050.52222	1.67102E-09
1050.64661	1.66434E-09
1050.77112	1.65769E-09
1050.89551	1.65109E-09
1051.02002	1.64453E-09
1051.14441	1.63801E-09
1051.26892	1.63152E-09
1051.39331	1.62508E-09
1051.51782	1.61867E-09
1051.64233	1.61231E-09
1051.76672	1.60598E-09
1051.89124	1.59969E-09
1052.01563	1.59344E-09
1052.14014	1.58723E-09
1052.26453	1.58105E-09
1052.38904	1.57491E-09
1052.51343	1.56881E-09
1052.63794	1.56274E-09
1052.76233	1.55671E-09
1052.88684	1.55071E-09
1053.01123	1.54476E-09
1053.13574	1.53883E-09
1053.26013	1.53294E-09
1053.38464	1.52709E-09
1053.50903	1.52126E-09
1053.63355	1.51548E-09
1053.75806	1.50972E-09
1053.88245	1.50400E-09
1054.00696	1.49831E-09
1054.13135	1.49266E-09
1054.25586	1.48703E-09
1054.38025	1.48144E-09
1054.50476	1.47588E-09
1054.62915	1.47035E-09
1054.75366	1.46485E-09
1054.87805	1.45939E-09
1055.00256	1.45395E-09
1055.12695	1.44854E-09
1055.25147	1.44317E-09
1055.37585	1.43782E-09
1055.50037	1.43250E-09
1055.62488	1.42721E-09
1055.74927	1.42195E-09
1055.87378	1.41672E-09
1055.99817	1.41152E-09
1056.12268	1.40635E-09
1056.24707	1.40120E-09
1056.37158	1.39609E-09
1056.49597	1.39100E-09
1056.62048	1.38594E-09
1056.74487	1.38090E-09
1056.86939	1.37589E-09
1056.99377	1.37091E-09
1057.11829	1.36596E-09
1057.24268	1.36103E-09
1057.36719	1.35613E-09
1057.49170	1.35126E-09
1057.61609	1.34641E-09
1057.74060	1.34159E-09
1057.86499	1.33679E-09
1057.98950	1.33202E-09
1058.11389	1.32728E-09
1058.23840	1.32256E-09
1058.36279	1.31786E-09
1058.48731	1.31319E-09
1058.61169	1.30855E-09
1058.73621	1.30393E-09
1058.86060	1.29933E-09
1058.98511	1.29476E-09
1059.10950	1.29022E-09
1059.23401	1.28569E-09
1059.35852	1.28120E-09
1059.48291	1.27673E-09
1059.60742	1.27228E-09
1059.73181	1.26785E-09
1059.85632	1.26345E-09
1059.98071	1.25907E-09
1060.10523	1.25472E-09
1060.22961	1.25039E-09
1060.35413	1.24608E-09
1060.47852	1.24180E-09
1060.60303	1.23754E-09
1060.72742	1.23330E-09
1060.85193	1.22909E-09
1060.97632	1.22490E-09
1061.10083	1.22073E-09
1061.22534	1.21658E-09
1061.34973	1.21246E-09
1061.47424	1.20836E-09
1061.59863	1.20428E-09
1061.72315	1.20023E-09
1061.84753	1.19620E-09
1061.97205	1.19219E-09
1062.09644	1.18820E-09
1062.22095	1.18423E-09
1062.34534	1.18029E-09
1062.46985	1.17637E-09
1062.59424	1.17247E-09
1062.71875	1.16859E-09
1062.84314	1.16473E-09
1062.96765	1.16089E-09
1063.09216	1.15708E-09
1063.21655	1.15328E-09
1063.34106	1.14951E-09
1063.46545	1.14576E-09
1063.58997	1.14203E-09
1063.71436	1.13831E-09
1063.83887	1.13463E-09
1063.96326	1.13096E-09
1064.08777	1.12730E-09
1064.21216	1.12367E-09
1064.33667	1.12006E-09
1064.46106	1.11647E-09
1064.58557	1.11291E-09
1064.70996	1.10936E-09
1064.83447	1.10582E-09
1064.95898	1.10231E-09
1065.08337	1.09882E-09
1065.20789	1.09535E-09
1065.33228	1.09189E-09
1065.45679	1.08846E-09
1065.58118	1.08504E-09
1065.70569	1.08164E-09
1065.83008	1.07826E-09
1065.95459	1.07490E-09
1066.07898	1.07156E-09
1066.20349	1.06823E-09
1066.32788	1.06492E-09
1066.45239	1.06163E-09
1066.57678	1.05836E-09
1066.70129	1.05511E-09
1066.82581	1.05187E-09
1066.95020	1.04865E-09
1067.07471	1.04545E-09
1067.19910	1.04226E-09
1067.32361	1.03909E-09
1067.44800	1.03594E-09
1067.57251	1.03281E-09
1067.69690	1.02968E-09
1067.82141	1.02658E-09
1067.94580	1.02349E-09
1068.07031	1.02042E-09
1068.19470	1.01736E-09
1068.31921	1.01432E-09
1068.44360	1.01130E-09
1068.56812	1.00829E-09
1068.69263	1.00530E-09
1068.81702	1.00232E-09
1068.94153	9.99352E-10
1069.06592	9.96404E-10
1069.19043	9.93471E-10
1069.31482	9.90552E-10
1069.43933	9.87646E-10
1069.56372	9.84755E-10
1069.68823	9.81880E-10
1069.81262	9.79019E-10
1069.93713	9.76172E-10
1070.06152	9.73340E-10
1070.18604	9.70522E-10
1070.31043	9.67718E-10
1070.43494	9.64926E-10
1070.55945	9.62151E-10
1070.68384	9.59388E-10
1070.80835	9.56640E-10
1070.93274	9.53905E-10
1071.05725	9.51185E-10
1071.18164	9.48477E-10
1071.30615	9.45783E-10
1071.43054	9.43103E-10
1071.55505	9.40436E-10
1071.67944	9.37783E-10
1071.80396	9.35142E-10
1071.92835	9.32515E-10
1072.05286	9.29903E-10
1072.17725	9.27304E-10
1072.30176	9.24717E-10
1072.42627	9.22143E-10
1072.55066	9.19583E-10
1072.67517	9.17036E-10
1072.79956	9.14503E-10
1072.92407	9.11983E-10
1073.04846	9.09476E-10
1073.17297	9.06982E-10
1073.29736	9.04502E-10
1073.42188	9.02034E-10
1073.54627	8.99580E-10
1073.67078	8.97140E-10
1073.79517	8.94712E-10
1073.91968	8.92297E-10
1074.04407	8.89896E-10
1074.16858	8.87508E-10
1074.29309	8.85134E-10
1074.41748	8.82771E-10
1074.54199	8.80422E-10
1074.66638	8.78088E-10
1074.79089	8.75765E-10
1074.91528	8.73456E-10
1075.03980	8.71159E-10
1075.16419	8.68877E-10
1075.28870	8.66608E-10
1075.41309	8.64351E-10
1075.53760	8.62108E-10
1075.66199	8.59878E-10
1075.78650	8.57661E-10
1075.91089	8.55457E-10
1076.03540	8.53266E-10
1076.15979	8.51090E-10
1076.28430	8.48925E-10
1076.40881	8.46775E-10
1076.53320	8.44637E-10
1076.65772	8.42512E-10
1076.78210	8.40400E-10
1076.90662	8.38302E-10
1077.03101	8.36217E-10
1077.15552	8.34145E-10
1077.27991	8.32086E-10
1077.40442	8.30040E-10
1077.52881	8.28007E-10
1077.65332	8.25986E-10
1077.77771	8.23979E-10
1077.90222	8.21985E-10
1078.02661	8.20003E-10
1078.15112	8.18034E-10
1078.27564	8.16079E-10
1078.40002	8.14136E-10
1078.52454	8.12206E-10
1078.64893	8.10288E-10
1078.77344	8.08384E-10
1078.89783	8.06491E-10
1079.02234	8.04611E-10
1079.14673	8.02744E-10
1079.27124	8.00889E-10
1079.39563	7.99047E-10
1079.52014	7.97216E-10
1079.64453	7.95398E-10
1079.76904	7.93593E-10
1079.89343	7.91798E-10
1080.01794	7.90016E-10
1080.14246	7.88246E-10
1080.26685	7.86488E-10
1080.39136	7.84741E-10
1080.51575	7.83007E-10
1080.64026	7.81284E-10
1080.76465	7.79573E-10
1080.88916	7.77872E-10
1081.01355	7.76185E-10
1081.13806	7.74506E-10
1081.26245	7.72840E-10
1081.38696	7.71184E-10
1081.51135	7.69540E-10
1081.63586	7.67907E-10
1081.76025	7.66284E-10
1081.88477	7.64671E-10
1082.00928	7.63070E-10
1082.13367	7.61479E-10
1082.25818	7.59898E-10
1082.38257	7.58327E-10
1082.50708	7.56766E-10
1082.63147	7.55215E-10
1082.75598	7.53675E-10
1082.88037	7.52144E-10
1083.00488	7.50622E-10
1083.12927	7.49111E-10
1083.25378	7.47609E-10
1083.37817	7.46116E-10
1083.50269	7.44633E-10
1083.62708	7.43158E-10
1083.75159	7.41693E-10
1083.87610	7.40237E-10
1084.00049	7.38790E-10
1084.12500	7.37351E-10
1084.24939	7.35922E-10
1084.37390	7.34500E-10
1084.49829	7.33087E-10
1084.62280	7.31683E-10
1084.74719	7.30286E-10
1084.87170	7.28899E-10
1084.99609	7.27519E-10
1085.12061	7.26147E-10
1085.24500	7.24782E-10
1085.36951	7.23426E-10
1085.49390	7.22077E-10
1085.61841	7.20736E-10
1085.74292	7.19403E-10
1085.86731	7.18077E-10
1085.99182	7.16759E-10
1086.11621	7.15448E-10
1086.24072	7.14144E-10
1086.36511	7.12848E-10
1086.48962	7.11559E-10
1086.61401	7.10278E-10
1086.73853	7.09002E-10
1086.86292	7.07735E-10
1086.98743	7.06474E-10
1087.11182	7.05220E-10
1087.23633	7.03973E-10
1087.36072	7.02734E-10
1087.48523	7.01500E-10
1087.60974	7.00274E-10
1087.73413	6.99054E-10
1087.85864	6.97841E-10
1087.98303	6.96634E-10
1088.10754	6.95434E-10
1088.23193	6.94241E-10
1088.35645	6.93055E-10
1088.48084	6.91875E-10
1088.60535	6.90701E-10
1088.72974	6.89535E-10
1088.85425	6.88375E-10
1088.97864	6.87221E-10
1089.10315	6.86074E-10
1089.22754	6.84934E-10
1089.35205	6.83799E-10
1089.47656	6.82672E-10
1089.60095	6.81552E-10
1089.72546	6.80437E-10
1089.84985	6.79329E-10
1089.97437	6.78227E-10
1090.09876	6.77133E-10
1090.22327	6.76045E-10
1090.34766	6.74963E-10
1090.47217	6.73887E-10
1090.59656	6.72819E-10
1090.72107	6.71757E-10
1090.84546	6.70702E-10
1090.96997	6.69653E-10
1091.09436	6.68611E-10
1091.21887	6.67576E-10
1091.34338	6.66547E-10
1091.46777	6.65525E-10
1091.59229	6.64510E-10
1091.71668	6.63502E-10
1091.84119	6.62500E-10
1091.96558	6.61505E-10
1092.09009	6.60517E-10
1092.21448	6.59536E-10
1092.33899	6.58562E-10
1092.46338	6.57594E-10
1092.58789	6.56634E-10
1092.71228	6.55680E-10
1092.83679	6.54733E-10
1092.96118	6.53793E-10
1093.08569	6.52860E-10
1093.21021	6.51934E-10
1093.33460	6.51015E-10
1093.45911	6.50103E-10
1093.58350	6.49198E-10
1093.70801	6.48300E-10
1093.83240	6.47409E-10
1093.95691	6.46525E-10
1094.08130	6.45647E-10
1094.20581	6.44777E-10
1094.33020	6.43914E-10
1094.45471	6.43058E-10
1094.57910	6.42209E-10
1094.70361	6.41366E-10
1094.82800	6.40531E-10
1094.95252	6.39702E-10
1095.07703	6.38881E-10
1095.20142	6.38066E-10
1095.32593	6.37259E-10
1095.45032	6.36458E-10
1095.57483	6.35664E-10
1095.69922	6.34877E-10
1095.82373	6.34096E-10
1095.94812	6.33323E-10
1096.07263	6.32556E-10
1096.19702	6.31796E-10
1096.32153	6.31043E-10
1096.44592	6.30296E-10
1096.57044	6.29556E-10
1096.69482	6.28823E-10
1096.81934	6.28096E-10
1096.94385	6.27375E-10
1097.06824	6.26661E-10
1097.19275	6.25953E-10
1097.31714	6.25251E-10
1097.44165	6.24556E-10
1097.56604	6.23867E-10
1097.69055	6.23184E-10
1097.81494	6.22508E-10
1097.93945	6.21836E-10
1098.06384	6.21171E-10
1098.18835	6.20512E-10
1098.31274	6.19859E-10
1098.43726	6.19212E-10
1098.56165	6.18570E-10
1098.68616	6.17935E-10
1098.81055	6.17304E-10
1098.93506	6.16680E-10
1099.05957	6.16060E-10
1099.18396	6.15446E-10
1099.30847	6.14837E-10
1099.43286	6.14234E-10
1099.55737	6.13636E-10
1099.68176	6.13042E-10
1099.80627	6.12453E-10
1099.93066	6.11870E-10
1100.05518	6.11292E-10
1100.17957	6.10718E-10
1100.30408	6.10148E-10
1100.42847	6.09584E-10
1100.55298	6.09024E-10
1100.67737	6.08468E-10
1100.80188	6.07917E-10
1100.92639	6.07370E-10
1101.05078	6.06828E-10
1101.17529	6.06290E-10
1101.29968	6.05755E-10
1101.42419	6.05225E-10
1101.54858	6.04699E-10
1101.67310	6.04177E-10
1101.79749	6.03659E-10
1101.92200	6.03144E-10
1102.04639	6.02634E-10
1102.17090	6.02126E-10
1102.29529	6.01623E-10
1102.41980	6.01123E-10
1102.54419	6.00626E-10
1102.66870	6.00133E-10
1102.79321	5.99643E-10
1102.91760	5.99156E-10
1103.04211	5.98673E-10
1103.16650	5.98193E-10
1103.29102	5.97716E-10
1103.41541	5.97242E-10
1103.53992	5.96771E-10
1103.66431	5.96304E-10
1103.78882	5.95839E-10
1103.91321	5.95377E-10
1104.03772	5.94918E-10
1104.16211	5.94462E-10
1104.28662	5.94009E-10
1104.41101	5.93558E-10
1104.53552	5.93110E-10
1104.66003	5.92666E-10
1104.78442	5.92223E-10
1104.90894	5.91784E-10
1105.03333	5.91347E-10
1105.15784	5.90913E-10
1105.28223	5.90481E-10
1105.40674	5.90052E-10
1105.53113	5.89626E-10
1105.65564	5.89202E-10
1105.78003	5.88781E-10
1105.90454	5.88363E-10
1106.02893	5.87947E-10
1106.15344	5.87533E-10
1106.27783	5.87123E-10
1106.40234	5.86714E-10
1106.52686	5.86308E-10
1106.65125	5.85905E-10
1106.77576	5.85504E-10
1106.90015	5.85106E-10
1107.02466	5.84710E-10
1107.14905	5.84317E-10
1107.27356	5.83927E-10
1107.39795	5.83538E-10
1107.52246	5.83153E-10
1107.64685	5.82769E-10
1107.77136	5.82390E-10
1107.89575	5.82012E-10
1108.02026	5.81636E-10
1108.14465	5.81264E-10
1108.26917	5.80893E-10
1108.39368	5.80526E-10
1108.51807	5.80161E-10
1108.64258	5.79799E-10
1108.76697	5.79439E-10
1108.89148	5.79082E-10
1109.01587	5.78727E-10
1109.14038	5.78375E-10
1109.26477	5.78025E-10
1109.38928	5.77678E-10
1109.51367	5.77334E-10
1109.63818	5.76992E-10
1109.76257	5.76653E-10
1109.88709	5.76317E-10
1110.01148	5.75984E-10
1110.13599	5.75653E-10
1110.26050	5.75324E-10
1110.38489	5.74998E-10
1110.50940	5.74675E-10
1110.63379	5.74354E-10
1110.75830	5.74037E-10
1110.88269	5.73721E-10
1111.00720	5.73409E-10
1111.13159	5.73098E-10
1111.25610	5.72790E-10
1111.38049	5.72485E-10
1111.50501	5.72182E-10
1111.62940	5.71882E-10
1111.75391	5.71585E-10
1111.87830	5.71289E-10
1112.00281	5.70997E-10
1112.12732	5.70706E-10
1112.25171	5.70419E-10
1112.37622	5.70133E-10
1112.50061	5.69850E-10
1112.62512	5.69569E-10
1112.74951	5.69290E-10
1112.87402	5.69014E-10
1112.99841	5.68740E-10
1113.12293	5.68468E-10
1113.24731	5.68198E-10
1113.37183	5.67931E-10
1113.49622	5.67665E-10
1113.62073	5.67402E-10
1113.74512	5.67141E-10
1113.86963	5.66882E-10
1113.99414	5.66624E-10
1114.11853	5.66369E-10
1114.24304	5.66115E-10
1114.36743	5.65863E-10
1114.49194	5.65613E-10
1114.61633	5.65364E-10
1114.74085	5.65118E-10
1114.86523	5.64873E-10
1114.98975	5.64629E-10
1115.11414	5.64387E-10
1115.23865	5.64147E-10
1115.36304	5.63909E-10
1115.48755	5.63671E-10
1115.61194	5.63434E-10
1115.73645	5.63200E-10
1115.86096	5.62966E-10
1115.98535	5.62733E-10
1116.10986	5.62502E-10
1116.23425	5.62272E-10
1116.35877	5.62043E-10
1116.48315	5.61815E-10
1116.60767	5.61588E-10
1116.73206	5.61363E-10
1116.85657	5.61138E-10
1116.98096	5.60913E-10
1117.10547	5.60690E-10
1117.22986	5.60467E-10
1117.35437	5.60245E-10
1117.47876	5.60024E-10
1117.60327	5.59803E-10
1117.72778	5.59583E-10
1117.85217	5.59363E-10
1117.97669	5.59145E-10
1118.10107	5.58926E-10
1118.22559	5.58709E-10
1118.34998	5.58492E-10
1118.47449	5.58276E-10
1118.59888	5.58059E-10
1118.72339	5.57843E-10
1118.84778	5.57627E-10
1118.97229	5.57412E-10
1119.09668	5.57197E-10
1119.22119	5.56983E-10
1119.34558	5.56768E-10
1119.47009	5.56554E-10
1119.59448	5.56340E-10
1119.71899	5.56126E-10
1119.84351	5.55913E-10
1119.96790	5.55700E-10
1120.09241	5.55487E-10
1120.21680	5.55275E-10
1120.34131	5.55062E-10
1120.46570	5.54850E-10
1120.59021	5.54638E-10
1120.71460	5.54427E-10
1120.83911	5.54215E-10
1120.96350	5.54004E-10
1121.08801	5.53793E-10
1121.21240	5.53582E-10
1121.33691	5.53371E-10
1121.46130	5.53161E-10
1121.58582	5.52951E-10
1121.71033	5.52742E-10
1121.83472	5.52533E-10
1121.95923	5.52324E-10
1122.08362	5.52115E-10
1122.20813	5.51908E-10
1122.33252	5.51700E-10
1122.45703	5.51493E-10
1122.58142	5.51286E-10
1122.70593	5.51080E-10
1122.83032	5.50874E-10
1122.95483	5.50668E-10
1123.07922	5.50464E-10
1123.20374	5.50260E-10
1123.32813	5.50056E-10
1123.45264	5.49853E-10
1123.57715	5.49651E-10
1123.70154	5.49450E-10
1123.82605	5.49249E-10
1123.95044	5.49049E-10
1124.07495	5.48849E-10
1124.19934	5.48651E-10
1124.32385	5.48453E-10
1124.44824	5.48257E-10
1124.57275	5.48061E-10
1124.69714	5.47865E-10
1124.82166	5.47671E-10
1124.94605	5.47478E-10
1125.07056	5.47286E-10
1125.19495	5.47094E-10
1125.31946	5.46904E-10
1125.44397	5.46715E-10
1125.56836	5.46527E-10
1125.69287	5.46340E-10
1125.81726	5.46154E-10
1125.94177	5.45969E-10
1126.06616	5.45784E-10
1126.19067	5.45602E-10
1126.31506	5.45421E-10
1126.43958	5.45240E-10
1126.56397	5.45061E-10
1126.68848	5.44883E-10
1126.81287	5.44706E-10
1126.93738	5.44531E-10
1127.06177	5.44356E-10
1127.18628	5.44183E-10
1127.31079	5.44011E-10
1127.43518	5.43840E-10
1127.55969	5.43670E-10
1127.68408	5.43501E-10
1127.80859	5.43334E-10
1127.93298	5.43168E-10
1128.05750	5.43003E-10
1128.18189	5.42839E-10
1128.30640	5.42676E-10
1128.43079	5.42514E-10
1128.55530	5.42353E-10
1128.67969	5.42193E-10
1128.80420	5.42035E-10
1128.92859	5.41878E-10
1129.05310	5.41721E-10
1129.17761	5.41565E-10
1129.30200	5.41411E-10
1129.42651	5.41257E-10
1129.55090	5.41104E-10
1129.67542	5.40953E-10
1129.79981	5.40801E-10
1129.92432	5.40651E-10
1130.04871	5.40501E-10
1130.17322	5.40353E-10
1130.29761	5.40205E-10
1130.42212	5.40058E-10
1130.54651	5.39911E-10
1130.67102	5.39764E-10
1130.79541	5.39618E-10
1130.91992	5.39473E-10
1131.04443	5.39329E-10
1131.16882	5.39184E-10
1131.29334	5.39041E-10
1131.41773	5.38897E-10
1131.54224	5.38754E-10
1131.66663	5.38612E-10
1131.79114	5.38470E-10
1131.91553	5.38328E-10
1132.04004	5.38186E-10
1132.16443	5.38044E-10
1132.28894	5.37903E-10
1132.41333	5.37762E-10
1132.53784	5.37620E-10
1132.66223	5.37479E-10
1132.78674	5.37337E-10
1132.91126	5.37196E-10
1133.03565	5.37054E-10
1133.16016	5.36913E-10
1133.28455	5.36772E-10
1133.40906	5.36630E-10
1133.53345	5.36487E-10
1133.65796	5.36345E-10
1133.78235	5.36202E-10
1133.90686	5.36059E-10
1134.03125	5.35916E-10
1134.15576	5.35772E-10
1134.28015	5.35629E-10
1134.40466	5.35485E-10
1134.52905	5.35340E-10
1134.65356	5.35196E-10
1134.77808	5.35051E-10
1134.90247	5.34906E-10
1135.02698	5.34760E-10
1135.15137	5.34614E-10
1135.27588	5.34467E-10
1135.40027	5.34320E-10
1135.52478	5.34173E-10
1135.64917	5.34025E-10
1135.77368	5.33877E-10
1135.89807	5.33729E-10
1136.02258	5.33581E-10
1136.14697	5.33432E-10
1136.27148	5.33282E-10
1136.39587	5.33133E-10
1136.52039	5.32983E-10
1136.64490	5.32833E-10
1136.76929	5.32682E-10
1136.89380	5.32531E-10
1137.01819	5.32380E-10
1137.14270	5.32229E-10
1137.26709	5.32078E-10
1137.39160	5.31927E-10
1137.51599	5.31775E-10
1137.64050	5.31624E-10
1137.76489	5.31472E-10
1137.88940	5.31321E-10
1138.01379	5.31170E-10
1138.13831	5.31018E-10
1138.26270	5.30867E-10
1138.38721	5.30716E-10
1138.51172	5.30565E-10
1138.63611	5.30415E-10
1138.76062	5.30264E-10
1138.88501	5.30114E-10
1139.00952	5.29964E-10
1139.13391	5.29815E-10
1139.25842	5.29666E-10
1139.38281	5.29517E-10
1139.50732	5.29369E-10
1139.63171	5.29222E-10
1139.75623	5.29075E-10
1139.88062	5.28929E-10
1140.00513	5.28784E-10
1140.12952	5.28639E-10
1140.25403	5.28494E-10
1140.37854	5.28351E-10
1140.50293	5.28209E-10
1140.62744	5.28067E-10
1140.75183	5.27927E-10
1140.87634	5.27787E-10
1141.00073	5.27648E-10
1141.12524	5.27511E-10
1141.24963	5.27375E-10
1141.37415	5.27239E-10
1141.49854	5.27104E-10
1141.62305	5.26971E-10
1141.74744	5.26839E-10
1141.87195	5.26708E-10
1141.99634	5.26579E-10
1142.12085	5.26450E-10
1142.24524	5.26323E-10
1142.36975	5.26197E-10
1142.49426	5.26073E-10
1142.61865	5.25950E-10
1142.74316	5.25828E-10
1142.86755	5.25708E-10
1142.99207	5.25588E-10
1143.11646	5.25471E-10
1143.24097	5.25354E-10
1143.36536	5.25239E-10
1143.48987	5.25125E-10
1143.61426	5.25013E-10
1143.73877	5.24902E-10
1143.86316	5.24792E-10
1143.98767	5.24684E-10
1144.11206	5.24578E-10
1144.23657	5.24472E-10
1144.36108	5.24368E-10
1144.48547	5.24265E-10
1144.60999	5.24164E-10
1144.73438	5.24063E-10
1144.85889	5.23964E-10
1144.98328	5.23867E-10
1145.10779	5.23771E-10
1145.23218	5.23675E-10
1145.35669	5.23581E-10
1145.48108	5.23489E-10
1145.60559	5.23397E-10
1145.72998	5.23306E-10
1145.85449	5.23217E-10
1145.97888	5.23128E-10
1146.10339	5.23041E-10
1146.22791	5.22954E-10
1146.35230	5.22869E-10
1146.47681	5.22784E-10
1146.60120	5.22701E-10
1146.72571	5.22618E-10
1146.85010	5.22536E-10
1146.97461	5.22454E-10
1147.09900	5.22374E-10
1147.22351	5.22294E-10
1147.34790	5.22214E-10
1147.47241	5.22136E-10
1147.59680	5.22057E-10
1147.72131	5.21980E-10
1147.84570	5.21903E-10
1147.97022	5.21827E-10
1148.09473	5.21750E-10
1148.21912	5.21675E-10
1148.34363	5.21600E-10
1148.46802	5.21524E-10
1148.59253	5.21450E-10
1148.71692	5.21375E-10
1148.84143	5.21301E-10
1148.96582	5.21227E-10
1149.09033	5.21154E-10
1149.21472	5.21080E-10
1149.33923	5.21006E-10
1149.46362	5.20933E-10
1149.58814	5.20860E-10
1149.71252	5.20787E-10
1149.83704	5.20714E-10
1149.96155	5.20641E-10
1150.08594	5.20568E-10
1150.21045	5.20495E-10
1150.33484	5.20421E-10
1150.45935	5.20348E-10
1150.58374	5.20275E-10
1150.70825	5.20201E-10
1150.83264	5.20128E-10
1150.95715	5.20055E-10
1151.08154	5.19981E-10
1151.20606	5.19908E-10
1151.33044	5.19834E-10
1151.45496	5.19761E-10
1151.57935	5.19687E-10
1151.70386	5.19613E-10
1151.82837	5.19539E-10
1151.95276	5.19465E-10
1152.07727	5.19391E-10
1152.20166	5.19317E-10
1152.32617	5.19243E-10
1152.45056	5.19169E-10
1152.57507	5.19095E-10
1152.69946	5.19021E-10
1152.82398	5.18947E-10
1152.94836	5.18874E-10
1153.07288	5.18800E-10
1153.19727	5.18726E-10
1153.32178	5.18653E-10
1153.44617	5.18580E-10
1153.57068	5.18507E-10
1153.69519	5.18435E-10
1153.81958	5.18363E-10
1153.94409	5.18291E-10
1154.06848	5.18220E-10
1154.19299	5.18149E-10
1154.31738	5.18079E-10
1154.44190	5.18009E-10
1154.56628	5.17939E-10
1154.69080	5.17871E-10
1154.81519	5.17803E-10
1154.93970	5.17735E-10
1155.06409	5.17668E-10
1155.18860	5.17602E-10
1155.31299	5.17536E-10
1155.43750	5.17472E-10
1155.56201	5.17408E-10
1155.68640	5.17345E-10
1155.81091	5.17283E-10
1155.93530	5.17222E-10
1156.05981	5.17162E-10
1156.18420	5.17104E-10
1156.30872	5.17046E-10
1156.43311	5.16989E-10
1156.55762	5.16934E-10
1156.68201	5.16880E-10
1156.80652	5.16826E-10
1156.93091	5.16775E-10
1157.05542	5.16724E-10
1157.17981	5.16674E-10
1157.30432	5.16626E-10
1157.42883	5.16580E-10
1157.55322	5.16534E-10
1157.67773	5.16490E-10
1157.80212	5.16447E-10
1157.92664	5.16405E-10
1158.05103	5.16365E-10
1158.17554	5.16326E-10
1158.29993	5.16289E-10
1158.42444	5.16253E-10
1158.54883	5.16219E-10
1158.67334	5.16185E-10
1158.79773	5.16153E-10
1158.92224	5.16122E-10
1159.04663	5.16093E-10
1159.17114	5.16065E-10
1159.29565	5.16039E-10
1159.42004	5.16013E-10
1159.54456	5.15989E-10
1159.66895	5.15966E-10
1159.79346	5.15945E-10
1159.91785	5.15924E-10
1160.04236	5.15906E-10
1160.16675	5.15888E-10
1160.29126	5.15871E-10
1160.41565	5.15855E-10
1160.54016	5.15841E-10
1160.66455	5.15827E-10
1160.78906	5.15815E-10
1160.91345	5.15803E-10
1161.03796	5.15792E-10
1161.16248	5.15782E-10
1161.28687	5.15773E-10
1161.41138	5.15764E-10
1161.53577	5.15755E-10
1161.66028	5.15748E-10
1161.78467	5.15741E-10
1161.90918	5.15734E-10
1162.03357	5.15728E-10
1162.15808	5.15723E-10
1162.28247	5.15718E-10
1162.40698	5.15713E-10
1162.53137	5.15708E-10
1162.65588	5.15703E-10
1162.78027	5.15698E-10
1162.90479	5.15693E-10
1163.02930	5.15688E-10
1163.15369	5.15683E-10
1163.27820	5.15678E-10
1163.40259	5.15672E-10
1163.52710	5.15665E-10
1163.65149	5.15659E-10
1163.77600	5.15652E-10
1163.90039	5.15644E-10
1164.02490	5.15636E-10
1164.14929	5.15627E-10
1164.27380	5.15617E-10
1164.39819	5.15607E-10
1164.52271	5.15595E-10
1164.64710	5.15583E-10
1164.77161	5.15569E-10
1164.89600	5.15555E-10
1165.02051	5.15540E-10
1165.14502	5.15523E-10
1165.26941	5.15505E-10
1165.39392	5.15486E-10
1165.51831	5.15466E-10
1165.64282	5.15444E-10
1165.76721	5.15421E-10
1165.89172	5.15397E-10
1166.01611	5.15371E-10
1166.14063	5.15344E-10
1166.26502	5.15315E-10
1166.38953	5.15285E-10
1166.51392	5.15254E-10
1166.63843	5.15221E-10
1166.76282	5.15186E-10
1166.88733	5.15149E-10
1167.01184	5.15111E-10
1167.13623	5.15071E-10
1167.26074	5.15030E-10
1167.38513	5.14987E-10
1167.50964	5.14943E-10
1167.63403	5.14897E-10
1167.75855	5.14849E-10
1167.88294	5.14800E-10
1168.00745	5.14750E-10
1168.13184	5.14698E-10
1168.25635	5.14644E-10
1168.38074	5.14590E-10
1168.50525	5.14533E-10
1168.62964	5.14475E-10
1168.75415	5.14416E-10
1168.87866	5.14355E-10
1169.00305	5.14294E-10
1169.12756	5.14230E-10
1169.25195	5.14167E-10
1169.37647	5.14101E-10
1169.50085	5.14035E-10
1169.62537	5.13967E-10
1169.74976	5.13899E-10
1169.87427	5.13830E-10
1169.99866	5.13760E-10
1170.12317	5.13689E-10
1170.24756	5.13617E-10
1170.37207	5.13545E-10
1170.49646	5.13472E-10
1170.62097	5.13399E-10
1170.74548	5.13325E-10
1170.86987	5.13252E-10
1170.99439	5.13177E-10
1171.11877	5.13103E-10
1171.24329	5.13028E-10
1171.36768	5.12953E-10
1171.49219	5.12878E-10
1171.61658	5.12804E-10
1171.74109	5.12729E-10
1171.86548	5.12655E-10
1171.98999	5.12581E-10
1172.11438	5.12508E-10
1172.23889	5.12435E-10
1172.36328	5.12363E-10
1172.48779	5.12291E-10
1172.61231	5.12220E-10
1172.73669	5.12150E-10
1172.86121	5.12080E-10
1172.98560	5.12012E-10
1173.11011	5.11945E-10
1173.23450	5.11878E-10
1173.35901	5.11813E-10
1173.48340	5.11749E-10
1173.60791	5.11686E-10
1173.73230	5.11624E-10
1173.85681	5.11564E-10
1173.98120	5.11505E-10
1174.10571	5.11448E-10
1174.23010	5.11393E-10
1174.35461	5.11338E-10
1174.47913	5.11286E-10
1174.60352	5.11235E-10
1174.72803	5.11186E-10
1174.85242	5.11138E-10
1174.97693	5.11093E-10
1175.10132	5.11049E-10
1175.22583	5.11007E-10
1175.35022	5.10967E-10
1175.47473	5.10928E-10
1175.59912	5.10892E-10
1175.72363	5.10857E-10
1175.84802	5.10825E-10
1175.97253	5.10794E-10
1176.09692	5.10766E-10
1176.22144	5.10739E-10
1176.34595	5.10714E-10
1176.47034	5.10691E-10
1176.59485	5.10670E-10
1176.71924	5.10651E-10
1176.84375	5.10634E-10
1176.96814	5.10619E-10
1177.09265	5.10605E-10
1177.21704	5.10593E-10
1177.34155	5.10584E-10
1177.46594	5.10575E-10
1177.59045	5.10569E-10
1177.71484	5.10564E-10
1177.83936	5.10561E-10
1177.96375	5.10559E-10
1178.08826	5.10560E-10
1178.21277	5.10561E-10
1178.33716	5.10564E-10
1178.46167	5.10569E-10
1178.58606	5.10575E-10
1178.71057	5.10582E-10
1178.83496	5.10590E-10
1178.95947	5.10600E-10
1179.08386	5.10611E-10
1179.20837	5.10623E-10
1179.33276	5.10636E-10
1179.45728	5.10649E-10
1179.58167	5.10664E-10
1179.70618	5.10679E-10
1179.83057	5.10695E-10
1179.95508	5.10712E-10
1180.07959	5.10729E-10
1180.20398	5.10747E-10
1180.32849	5.10765E-10
1180.45288	5.10783E-10
1180.57739	5.10802E-10
1180.70178	5.10821E-10
1180.82629	5.10840E-10
1180.95068	5.10860E-10
1181.07520	5.10879E-10
1181.19959	5.10898E-10
1181.32410	5.10917E-10
1181.44849	5.10936E-10
1181.57300	5.10955E-10
1181.69739	5.10973E-10
1181.82190	5.10991E-10
1181.94641	5.11008E-10
1182.07080	5.11025E-10
1182.19531	5.11042E-10
1182.31970	5.11057E-10
1182.44421	5.11072E-10
1182.56860	5.11086E-10
1182.69312	5.11099E-10
1182.81751	5.11112E-10
1182.94202	5.11123E-10
1183.06641	5.11134E-10
1183.19092	5.11143E-10
1183.31531	5.11152E-10
1183.43982	5.11160E-10
1183.56421	5.11166E-10
1183.68872	5.11171E-10
1183.81323	5.11176E-10
1183.93762	5.11179E-10
1184.06213	5.11181E-10
1184.18652	5.11181E-10
1184.31104	5.11181E-10
1184.43543	5.11179E-10
1184.55994	5.11176E-10
1184.68433	5.11171E-10
1184.80884	5.11165E-10
1184.93323	5.11158E-10
1185.05774	5.11150E-10
1185.18213	5.11140E-10
1185.30664	5.11129E-10
1185.43103	5.11117E-10
1185.55554	5.11103E-10
1185.68005	5.11089E-10
1185.80444	5.11072E-10
1185.92896	5.11055E-10
1186.05335	5.11037E-10
1186.17786	5.11017E-10
1186.30225	5.10997E-10
1186.42676	5.10974E-10
1186.55115	5.10952E-10
1186.67566	5.10928E-10
1186.80005	5.10903E-10
1186.92456	5.10877E-10
1187.04895	5.10850E-10
1187.17346	5.10823E-10
1187.29785	5.10794E-10
1187.42236	5.10765E-10
1187.54675	5.10735E-10
1187.67127	5.10704E-10
1187.79578	5.10672E-10
1187.92017	5.10641E-10
1188.04468	5.10608E-10
1188.16907	5.10575E-10
1188.29358	5.10542E-10
1188.41797	5.10508E-10
1188.54248	5.10474E-10
1188.66687	5.10439E-10
1188.79138	5.10405E-10
1188.91577	5.10370E-10
1189.04028	5.10335E-10
1189.16467	5.10300E-10
1189.28919	5.10265E-10
1189.41357	5.10231E-10
1189.53809	5.10196E-10
1189.66260	5.10161E-10
1189.78699	5.10127E-10
1189.91150	5.10093E-10
1190.03589	5.10060E-10
1190.16040	5.10026E-10
1190.28479	5.09993E-10
1190.40930	5.09961E-10
1190.53369	5.09929E-10
1190.65820	5.09898E-10
1190.78259	5.09867E-10
1190.90710	5.09837E-10
1191.03149	5.09808E-10
1191.15601	5.09779E-10
1191.28040	5.09752E-10
1191.40491	5.09725E-10
1191.52942	5.09699E-10
1191.65381	5.09673E-10
1191.77832	5.09649E-10
1191.90271	5.09626E-10
1192.02722	5.09603E-10
1192.15161	5.09582E-10
1192.27612	5.09561E-10
1192.40051	5.09542E-10
1192.52502	5.09523E-10
1192.64941	5.09506E-10
1192.77393	5.09490E-10
1192.89832	5.09476E-10
1193.02283	5.09461E-10
1193.14722	5.09449E-10
1193.27173	5.09437E-10
1193.39624	5.09426E-10
1193.52063	5.09417E-10
1193.64514	5.09408E-10
1193.76953	5.09401E-10
1193.89404	5.09395E-10
1194.01843	5.09390E-10
1194.14294	5.09386E-10
1194.26733	5.09383E-10
1194.39185	5.09381E-10
1194.51624	5.09380E-10
1194.64075	5.09380E-10
1194.76514	5.09382E-10
1194.88965	5.09383E-10
1195.01404	5.09386E-10
1195.13855	5.09390E-10
1195.26306	5.09395E-10
1195.38745	5.09401E-10
1195.51196	5.09407E-10
1195.63635	5.09415E-10
1195.76086	5.09423E-10
1195.88525	5.09432E-10
1196.00977	5.09442E-10
1196.13416	5.09452E-10
1196.25867	5.09463E-10
1196.38306	5.09475E-10
1196.50757	5.09487E-10
1196.63196	5.09500E-10
1196.75647	5.09513E-10
1196.88086	5.09527E-10
1197.00537	5.09541E-10
1197.12988	5.09556E-10
1197.25427	5.09571E-10
1197.37878	5.09586E-10
1197.50317	5.09603E-10
1197.62769	5.09618E-10
1197.75208	5.09635E-10
1197.87659	5.09651E-10
1198.00098	5.09668E-10
1198.12549	5.09684E-10
1198.24988	5.09701E-10
1198.37439	5.09718E-10
1198.49878	5.09735E-10
1198.62329	5.09752E-10
1198.74768	5.09769E-10
1198.87219	5.09786E-10
1198.99670	5.09802E-10
1199.12109	5.09819E-10
1199.24561	5.09835E-10
1199.37000	5.09852E-10
1199.49451	5.09868E-10
1199.61890	5.09884E-10
1199.74341	5.09899E-10
1199.86780	5.09915E-10
1199.99231	5.09930E-10
1200.11670	5.09945E-10
1200.24121	5.09960E-10
1200.36560	5.09974E-10
1200.49011	5.09988E-10
1200.61450	5.10002E-10
1200.73901	5.10015E-10
1200.86353	5.10029E-10
1200.98792	5.10041E-10
1201.11243	5.10054E-10
1201.23682	5.10066E-10
1201.36133	5.10078E-10
1201.48572	5.10090E-10
1201.61023	5.10101E-10
1201.73462	5.10111E-10
1201.85913	5.10122E-10
1201.98352	5.10132E-10
1202.10803	5.10142E-10
1202.23242	5.10151E-10
1202.35693	5.10161E-10
1202.48132	5.10170E-10
1202.60584	5.10179E-10
1202.73035	5.10187E-10
1202.85474	5.10195E-10
1202.97925	5.10203E-10
1203.10364	5.10211E-10
1203.22815	5.10219E-10
1203.35254	5.10226E-10
1203.47705	5.10233E-10
1203.60144	5.10241E-10
1203.72595	5.10247E-10
1203.85034	5.10254E-10
1203.97485	5.10261E-10
1204.09924	5.10268E-10
1204.22376	5.10275E-10
1204.34815	5.10282E-10
1204.47266	5.10290E-10
1204.59717	5.10297E-10
1204.72156	5.10304E-10
1204.84607	5.10311E-10
1204.97046	5.10318E-10
1205.09497	5.10326E-10
1205.21936	5.10333E-10
1205.34387	5.10341E-10
1205.46826	5.10348E-10
1205.59277	5.10357E-10
1205.71716	5.10365E-10
1205.84168	5.10374E-10
1205.96606	5.10383E-10
1206.09058	5.10393E-10
1206.21497	5.10402E-10
1206.33948	5.10412E-10
1206.46399	5.10423E-10
1206.58838	5.10434E-10
1206.71289	5.10445E-10
1206.83728	5.10456E-10
1206.96179	5.10468E-10
1207.08618	5.10480E-10
1207.21069	5.10493E-10
1207.33508	5.10506E-10
1207.45960	5.10520E-10
1207.58398	5.10533E-10
1207.70850	5.10548E-10
1207.83289	5.10563E-10
1207.95740	5.10579E-10
1208.08179	5.10595E-10
1208.20630	5.10611E-10
1208.33069	5.10628E-10
1208.45520	5.10645E-10
1208.57971	5.10663E-10
1208.70410	5.10680E-10
1208.82861	5.10699E-10
1208.95300	5.10718E-10
1209.07752	5.10738E-10
1209.20190	5.10758E-10
1209.32642	5.10778E-10
1209.45081	5.10799E-10
1209.57532	5.10820E-10
1209.69971	5.10841E-10
1209.82422	5.10863E-10
1209.94861	5.10885E-10
1210.07312	5.10907E-10
1210.19751	5.10930E-10
1210.32202	5.10953E-10
1210.44653	5.10977E-10
1210.57092	5.11000E-10
1210.69544	5.11024E-10
1210.81982	5.11049E-10
1210.94434	5.11073E-10
1211.06873	5.11098E-10
1211.19324	5.11123E-10
1211.31763	5.11147E-10
1211.44214	5.11172E-10
1211.56653	5.11197E-10
1211.69104	5.11222E-10
1211.81543	5.11247E-10
1211.93994	5.11273E-10
1212.06433	5.11298E-10
1212.18884	5.11323E-10
1212.31335	5.11349E-10
1212.43774	5.11374E-10
1212.56226	5.11399E-10
1212.68665	5.11424E-10
1212.81116	5.11449E-10
1212.93555	5.11474E-10
1213.06006	5.11499E-10
1213.18445	5.11523E-10
1213.30896	5.11547E-10
1213.43335	5.11572E-10
1213.55786	5.11596E-10
1213.68225	5.11619E-10
1213.80676	5.11643E-10
1213.93115	5.11666E-10
1214.05566	5.11690E-10
1214.18018	5.11712E-10
1214.30457	5.11735E-10
1214.42908	5.11757E-10
1214.55347	5.11780E-10
1214.67798	5.11801E-10
1214.80237	5.11823E-10
1214.92688	5.11844E-10
1215.05127	5.11865E-10
1215.17578	5.11886E-10
1215.30017	5.11906E-10
1215.42468	5.11926E-10
1215.54907	5.11946E-10
1215.67358	5.11965E-10
1215.79797	5.11984E-10
1215.92249	5.12003E-10
1216.04700	5.12021E-10
1216.17139	5.12039E-10
1216.29590	5.12057E-10
1216.42029	5.12075E-10
1216.54480	5.12093E-10
1216.66919	5.12110E-10
1216.79370	5.12127E-10
1216.91809	5.12145E-10
1217.04260	5.12162E-10
1217.16699	5.12178E-10
1217.29150	5.12195E-10
1217.41589	5.12212E-10
1217.54041	5.12228E-10
1217.66480	5.12244E-10
1217.78931	5.12261E-10
1217.91382	5.12277E-10
1218.03821	5.12293E-10
1218.16272	5.12310E-10
1218.28711	5.12326E-10
1218.41162	5.12342E-10
1218.53601	5.12359E-10
1218.66052	5.12376E-10
1218.78491	5.12392E-10
1218.90942	5.12409E-10
1219.03381	5.12426E-10
1219.15833	5.12444E-10
1219.28272	5.12462E-10
1219.40723	5.12480E-10
1219.53162	5.12499E-10
1219.65613	5.12517E-10
1219.78064	5.12537E-10
1219.90503	5.12556E-10
1220.02954	5.12576E-10
1220.15393	5.12596E-10
1220.27844	5.12617E-10
1220.40283	5.12638E-10
1220.52734	5.12659E-10
1220.65173	5.12681E-10
1220.77625	5.12704E-10
1220.90064	5.12727E-10
1221.02515	5.12751E-10
1221.14954	5.12775E-10
1221.27405	5.12800E-10
1221.39844	5.12826E-10
1221.52295	5.12852E-10
1221.64746	5.12880E-10
1221.77185	5.12907E-10
1221.89636	5.12936E-10
1222.02075	5.12965E-10
1222.14526	5.12994E-10
1222.26965	5.13025E-10
1222.39417	5.13056E-10
1222.51856	5.13088E-10
1222.64307	5.13120E-10
1222.76746	5.13153E-10
1222.89197	5.13187E-10
1223.01636	5.13221E-10
1223.14087	5.13257E-10
1223.26526	5.13293E-10
1223.38977	5.13330E-10
1223.51428	5.13367E-10
1223.63867	5.13405E-10
1223.76318	5.13445E-10
1223.88757	5.13484E-10
1224.01209	5.13525E-10
1224.13648	5.13566E-10
1224.26099	5.13608E-10
1224.38538	5.13650E-10
1224.50989	5.13693E-10
1224.63428	5.13736E-10
1224.75879	5.13780E-10
1224.88318	5.13825E-10
1225.00769	5.13870E-10
1225.13208	5.13916E-10
1225.25659	5.13962E-10
1225.38110	5.14008E-10
1225.50549	5.14056E-10
1225.63001	5.14103E-10
1225.75440	5.14151E-10
1225.87891	5.14199E-10
1226.00330	5.14248E-10
1226.12781	5.14297E-10
1226.25220	5.14346E-10
1226.37671	5.14396E-10
1226.50110	5.14447E-10
1226.62561	5.14496E-10
1226.75000	5.14547E-10
1226.87451	5.14598E-10
1226.99890	5.14649E-10
1227.12341	5.14700E-10
1227.24793	5.14751E-10
1227.37231	5.14802E-10
1227.49683	5.14853E-10
1227.62122	5.14904E-10
1227.74573	5.14956E-10
1227.87012	5.15006E-10
1227.99463	5.15058E-10
1228.11902	5.15109E-10
1228.24353	5.15160E-10
1228.36792	5.15210E-10
1228.49243	5.15261E-10
1228.61682	5.15311E-10
1228.74133	5.15362E-10
1228.86572	5.15412E-10
1228.99023	5.15462E-10
1229.11475	5.15511E-10
1229.23914	5.15561E-10
1229.36365	5.15610E-10
1229.48804	5.15659E-10
1229.61255	5.15708E-10
1229.73694	5.15756E-10
1229.86145	5.15804E-10
1229.98584	5.15852E-10
1230.11035	5.15900E-10
1230.23474	5.15947E-10
1230.35925	5.15994E-10
1230.48364	5.16040E-10
1230.60815	5.16087E-10
1230.73254	5.16133E-10
1230.85706	5.16179E-10
1230.98145	5.16224E-10
1231.10596	5.16269E-10
1231.23047	5.16314E-10
1231.35486	5.16358E-10
1231.47937	5.16402E-10
1231.60376	5.16445E-10
1231.72827	5.16489E-10
1231.85266	5.16532E-10
1231.97717	5.16575E-10
1232.10156	5.16618E-10
1232.22607	5.16660E-10
1232.35046	5.16702E-10
1232.47498	5.16744E-10
1232.59937	5.16786E-10
1232.72388	5.16828E-10
1232.84827	5.16869E-10
1232.97278	5.16911E-10
1233.09729	5.16953E-10
1233.22168	5.16994E-10
1233.34619	5.17035E-10
1233.47058	5.17077E-10
1233.59509	5.17118E-10
1233.71948	5.17160E-10
1233.84399	5.17201E-10
1233.96838	5.17243E-10
1234.09290	5.17285E-10
1234.21729	5.17327E-10
1234.34180	5.17369E-10
1234.46619	5.17412E-10
1234.59070	5.17454E-10
1234.71509	5.17497E-10
1234.83960	5.17540E-10
1234.96411	5.17583E-10
1235.08850	5.17627E-10
1235.21301	5.17671E-10
1235.33740	5.17715E-10
1235.46191	5.17760E-10
1235.58630	5.17805E-10
1235.71082	5.17851E-10
1235.83521	5.17897E-10
1235.95972	5.17944E-10
1236.08411	5.17991E-10
1236.20862	5.18038E-10
1236.33301	5.18087E-10
1236.45752	5.18136E-10
1236.58191	5.18185E-10
1236.70642	5.18235E-10
1236.83093	5.18285E-10
1236.95532	5.18337E-10
1237.07983	5.18389E-10
1237.20422	5.18441E-10
1237.32874	5.18494E-10
1237.45313	5.18548E-10
1237.57764	5.18603E-10
1237.70203	5.18658E-10
1237.82654	5.18714E-10
1237.95093	5.18771E-10
1238.07544	5.18828E-10
1238.19983	5.18886E-10
1238.32434	5.18945E-10
1238.44873	5.19004E-10
1238.57324	5.19064E-10
1238.69775	5.19125E-10
1238.82214	5.19186E-10
1238.94666	5.19249E-10
1239.07105	5.19311E-10
1239.19556	5.19375E-10
1239.31995	5.19439E-10
1239.44446	5.19504E-10
1239.56885	5.19569E-10
1239.69336	5.19635E-10
1239.81775	5.19701E-10
1239.94226	5.19768E-10
1240.06665	5.19835E-10
1240.19116	5.19904E-10
1240.31555	5.19972E-10
1240.44006	5.20041E-10
1240.56458	5.20111E-10
1240.68897	5.20181E-10
1240.81348	5.20251E-10
1240.93787	5.20322E-10
1241.06238	5.20393E-10
1241.18677	5.20465E-10
1241.31128	5.20537E-10
1241.43567	5.20609E-10
1241.56018	5.20681E-10
1241.68457	5.20753E-10
1241.80908	5.20826E-10
1241.93347	5.20899E-10
1242.05798	5.20972E-10
1242.18237	5.21045E-10
1242.30689	5.21118E-10
1242.43140	5.21191E-10
1242.55579	5.21264E-10
1242.68030	5.21337E-10
1242.80469	5.21410E-10
1242.92920	5.21483E-10
1243.05359	5.21556E-10
1243.17810	5.21629E-10
1243.30249	5.21702E-10
1243.42700	5.21774E-10
1243.55139	5.21846E-10
1243.67590	5.21919E-10
1243.80029	5.21991E-10
1243.92481	5.22063E-10
1244.04919	5.22135E-10
1244.17371	5.22206E-10
1244.29822	5.22277E-10
1244.42261	5.22347E-10
1244.54712	5.22417E-10
1244.67151	5.22488E-10
1244.79602	5.22557E-10
1244.92041	5.22627E-10
1245.04492	5.22696E-10
1245.16931	5.22765E-10
1245.29382	5.22833E-10
1245.41821	5.22901E-10
1245.54273	5.22968E-10
1245.66711	5.23035E-10
1245.79163	5.23102E-10
1245.91602	5.23168E-10
1246.04053	5.23234E-10
1246.16504	5.23300E-10
1246.28943	5.23365E-10
1246.41394	5.23430E-10
1246.53833	5.23495E-10
1246.66284	5.23559E-10
1246.78723	5.23623E-10
1246.91174	5.23687E-10
1247.03613	5.23750E-10
1247.16065	5.23813E-10
1247.28503	5.23876E-10
1247.40955	5.23938E-10
1247.53394	5.24001E-10
1247.65845	5.24063E-10
1247.78284	5.24125E-10
1247.90735	5.24186E-10
1248.03186	5.24248E-10
1248.15625	5.24309E-10
1248.28076	5.24371E-10
1248.40515	5.24432E-10
1248.52966	5.24493E-10
1248.65405	5.24554E-10
1248.77856	5.24615E-10
1248.90295	5.24677E-10
1249.02747	5.24738E-10
1249.15186	5.24800E-10
1249.27637	5.24861E-10
1249.40076	5.24923E-10
1249.52527	5.24985E-10
1249.64966	5.25047E-10
1249.77417	5.25109E-10
1249.89868	5.25172E-10
1250.02307	5.25235E-10
1250.14758	5.25298E-10
1250.27197	5.25361E-10
1250.39648	5.25425E-10
1250.52087	5.25490E-10
1250.64539	5.25554E-10
1250.76978	5.25620E-10
1250.89429	5.25686E-10
1251.01868	5.25752E-10
1251.14319	5.25819E-10
1251.26758	5.25886E-10
1251.39209	5.25954E-10
1251.51648	5.26023E-10
1251.64099	5.26092E-10
1251.76550	5.26162E-10
1251.88989	5.26233E-10
1252.01440	5.26304E-10
1252.13879	5.26376E-10
1252.26331	5.26449E-10
1252.38770	5.26522E-10
1252.51221	5.26596E-10
1252.63660	5.26671E-10
1252.76111	5.26747E-10
1252.88550	5.26823E-10
1253.01001	5.26900E-10
1253.13440	5.26979E-10
1253.25891	5.27057E-10
1253.38330	5.27136E-10
1253.50781	5.27216E-10
1253.63220	5.27297E-10
1253.75671	5.27378E-10
1253.88123	5.27460E-10
1254.00562	5.27543E-10
1254.13013	5.27626E-10
1254.25452	5.27710E-10
1254.37903	5.27795E-10
1254.50342	5.27880E-10
1254.62793	5.27966E-10
1254.75232	5.28053E-10
1254.87683	5.28140E-10
1255.00122	5.28228E-10
1255.12573	5.28316E-10
1255.25012	5.28404E-10
1255.37463	5.28494E-10
1255.49902	5.28583E-10
1255.62354	5.28673E-10
1255.74805	5.28763E-10
1255.87244	5.28853E-10
1255.99695	5.28944E-10
1256.12134	5.29035E-10
1256.24585	5.29126E-10
1256.37024	5.29218E-10
1256.49475	5.29309E-10
1256.61914	5.29401E-10
1256.74365	5.29492E-10
1256.86804	5.29584E-10
1256.99255	5.29676E-10
1257.11694	5.29768E-10
1257.24146	5.29859E-10
1257.36585	5.29951E-10
1257.49036	5.30042E-10
1257.61487	5.30133E-10
1257.73926	5.30223E-10
1257.86377	5.30314E-10
1257.98816	5.30403E-10
1258.11267	5.30493E-10
1258.23706	5.30582E-10
1258.36157	5.30671E-10
1258.48596	5.30758E-10
1258.61047	5.30846E-10
1258.73486	5.30933E-10
1258.85938	5.31019E-10
1258.98377	5.31105E-10
1259.10828	5.31189E-10
1259.23267	5.31273E-10
1259.35718	5.31357E-10
1259.48169	5.31439E-10
1259.60608	5.31521E-10
1259.73059	5.31602E-10
1259.85498	5.31681E-10
1259.97949	5.31760E-10
1260.10388	5.31838E-10
1260.22839	5.31915E-10
1260.35278	5.31991E-10
1260.47730	5.32066E-10
1260.60169	5.32140E-10
1260.72620	5.32213E-10
1260.85059	5.32284E-10
1260.97510	5.32355E-10
1261.09949	5.32425E-10
1261.22400	5.32493E-10
1261.34851	5.32560E-10
1261.47290	5.32627E-10
1261.59741	5.32692E-10
1261.72180	5.32756E-10
1261.84631	5.32819E-10
1261.97070	5.32881E-10
1262.09522	5.32942E-10
1262.21960	5.33001E-10
1262.34412	5.33060E-10
1262.46851	5.33117E-10
1262.59302	5.33174E-10
1262.71741	5.33230E-10
1262.84192	5.33284E-10
1262.96631	5.33337E-10
1263.09082	5.33390E-10
1263.21533	5.33441E-10
1263.33972	5.33492E-10
1263.46423	5.33541E-10
1263.58862	5.33590E-10
1263.71314	5.33638E-10
1263.83752	5.33685E-10
1263.96204	5.33731E-10
1264.08643	5.33777E-10
1264.21094	5.33821E-10
1264.33533	5.33865E-10
1264.45984	5.33909E-10
1264.58423	5.33951E-10
1264.70874	5.33993E-10
1264.83313	5.34035E-10
1264.95764	5.34075E-10
1265.08215	5.34116E-10
1265.20654	5.34156E-10
1265.33106	5.34195E-10
1265.45544	5.34234E-10
1265.57996	5.34273E-10
1265.70435	5.34312E-10
1265.82886	5.34350E-10
1265.95325	5.34388E-10
1266.07776	5.34426E-10
1266.20215	5.34463E-10
1266.32666	5.34500E-10
1266.45105	5.34537E-10
1266.57556	5.34575E-10
1266.69995	5.34612E-10
1266.82446	5.34649E-10
1266.94898	5.34686E-10
1267.07336	5.34723E-10
1267.19788	5.34760E-10
1267.32227	5.34797E-10
1267.44678	5.34834E-10
1267.57117	5.34872E-10
1267.69568	5.34909E-10
1267.82007	5.34947E-10
1267.94458	5.34986E-10
1268.06897	5.35024E-10
1268.19348	5.35062E-10
1268.31787	5.35101E-10
1268.44238	5.35141E-10
1268.56677	5.35180E-10
1268.69128	5.35220E-10
1268.81580	5.35261E-10
1268.94019	5.35301E-10
1269.06470	5.35342E-10
1269.18909	5.35383E-10
1269.31360	5.35425E-10
1269.43799	5.35467E-10
1269.56250	5.35509E-10
1269.68689	5.35551E-10
1269.81140	5.35594E-10
1269.93579	5.35637E-10
1270.06030	5.35680E-10
1270.18469	5.35724E-10
1270.30920	5.35768E-10
1270.43359	5.35813E-10
1270.55811	5.35858E-10
1270.68262	5.35903E-10
1270.80701	5.35948E-10
1270.93152	5.35993E-10
1271.05591	5.36039E-10
1271.18042	5.36085E-10
1271.30481	5.36131E-10
1271.42932	5.36178E-10
1271.55371	5.36224E-10
1271.67822	5.36270E-10
1271.80261	5.36317E-10
1271.92712	5.36364E-10
1272.05151	5.36411E-10
1272.17603	5.36457E-10
1272.30042	5.36504E-10
1272.42493	5.36551E-10
1272.54944	5.36597E-10
1272.67383	5.36644E-10
1272.79834	5.36690E-10
1272.92273	5.36737E-10
1273.04724	5.36783E-10
1273.17163	5.36828E-10
1273.29614	5.36874E-10
1273.42053	5.36919E-10
1273.54504	5.36964E-10
1273.66943	5.37009E-10
1273.79395	5.37053E-10
1273.91834	5.37097E-10
1274.04285	5.37141E-10
1274.16724	5.37183E-10
1274.29175	5.37226E-10
1274.41626	5.37268E-10
1274.54065	5.37309E-10
1274.66516	5.37350E-10
1274.78955	5.37390E-10
1274.91406	5.37430E-10
1275.03845	5.37469E-10
1275.16296	5.37508E-10
1275.28735	5.37546E-10
1275.41187	5.37584E-10
1275.53626	5.37620E-10
1275.66077	5.37656E-10
1275.78516	5.37692E-10
1275.90967	5.37726E-10
1276.03406	5.37760E-10
1276.15857	5.37793E-10
1276.28296	5.37826E-10
1276.40747	5.37858E-10
1276.53198	5.37890E-10
1276.65637	5.37921E-10
1276.78088	5.37951E-10
1276.90527	5.37981E-10
1277.02979	5.38009E-10
1277.15418	5.38038E-10
1277.27869	5.38065E-10
1277.40308	5.38093E-10
1277.52759	5.38119E-10
1277.65198	5.38145E-10
1277.77649	5.38170E-10
1277.90088	5.38195E-10
1278.02539	5.38219E-10
1278.14978	5.38243E-10
1278.27429	5.38267E-10
1278.39880	5.38290E-10
1278.52319	5.38312E-10
1278.64771	5.38335E-10
1278.77210	5.38357E-10
1278.89661	5.38379E-10
1279.02100	5.38401E-10
1279.14551	5.38423E-10
1279.26990	5.38444E-10
1279.39441	5.38465E-10
1279.51880	5.38487E-10
1279.64331	5.38508E-10
1279.76770	5.38530E-10
1279.89221	5.38551E-10
1280.01660	5.38573E-10
1280.14111	5.38595E-10
1280.26563	5.38616E-10
1280.39002	5.38638E-10
1280.51453	5.38661E-10
1280.63892	5.38684E-10
1280.76343	5.38707E-10
1280.88782	5.38731E-10
1281.01233	5.38755E-10
1281.13672	5.38780E-10
1281.26123	5.38805E-10
1281.38562	5.38831E-10
1281.51013	5.38857E-10
1281.63452	5.38885E-10
1281.75903	5.38913E-10
1281.88342	5.38942E-10
1282.00794	5.38972E-10
1282.13245	5.39003E-10
1282.25684	5.39034E-10
1282.38135	5.39067E-10
1282.50574	5.39101E-10
1282.63025	5.39136E-10
1282.75464	5.39171E-10
1282.87915	5.39208E-10
1283.00354	5.39246E-10
1283.12805	5.39285E-10
1283.25244	5.39325E-10
1283.37695	5.39366E-10
1283.50134	5.39409E-10
1283.62585	5.39453E-10
1283.75024	5.39497E-10
1283.87476	5.39544E-10
1283.99927	5.39591E-10
1284.12366	5.39640E-10
1284.24817	5.39690E-10
1284.37256	5.39742E-10
1284.49707	5.39795E-10
1284.62146	5.39849E-10
1284.74597	5.39904E-10
1284.87036	5.39961E-10
1284.99487	5.40019E-10
1285.11926	5.40078E-10
1285.24377	5.40138E-10
1285.36816	5.40200E-10
1285.49268	5.40262E-10
1285.61707	5.40326E-10
1285.74158	5.40392E-10
1285.86609	5.40458E-10
1285.99048	5.40526E-10
1286.11499	5.40594E-10
1286.23938	5.40663E-10
1286.36389	5.40734E-10
1286.48828	5.40806E-10
1286.61279	5.40879E-10
1286.73718	5.40952E-10
1286.86169	5.41027E-10
1286.98608	5.41101E-10
1287.11060	5.41178E-10
1287.23499	5.41255E-10
1287.35950	5.41332E-10
1287.48389	5.41410E-10
1287.60840	5.41488E-10
1287.73291	5.41568E-10
1287.85730	5.41648E-10
1287.98181	5.41728E-10
1288.10620	5.41809E-10
1288.23071	5.41890E-10
1288.35510	5.41971E-10
1288.47961	5.42053E-10
1288.60400	5.42135E-10
1288.72852	5.42217E-10
1288.85291	5.42299E-10
1288.97742	5.42381E-10
1289.10181	5.42463E-10
1289.22632	5.42545E-10
1289.35071	5.42628E-10
1289.47522	5.42709E-10
1289.59973	5.42791E-10
1289.72412	5.42872E-10
1289.84863	5.42953E-10
1289.97302	5.43034E-10
1290.09753	5.43114E-10
1290.22192	5.43194E-10
1290.34644	5.43273E-10
1290.47083	5.43351E-10
1290.59534	5.43429E-10
1290.71973	5.43506E-10
1290.84424	5.43582E-10
1290.96863	5.43658E-10
1291.09314	5.43733E-10
1291.21753	5.43807E-10
1291.34204	5.43880E-10
1291.46655	5.43952E-10
1291.59094	5.44024E-10
1291.71545	5.44094E-10
1291.83984	5.44164E-10
1291.96436	5.44233E-10
1292.08875	5.44300E-10
1292.21326	5.44367E-10
1292.33765	5.44432E-10
1292.46216	5.44497E-10
1292.58655	5.44560E-10
1292.71106	5.44623E-10
1292.83545	5.44684E-10
1292.95996	5.44745E-10
1293.08435	5.44803E-10
1293.20886	5.44862E-10
1293.33337	5.44919E-10
1293.45776	5.44974E-10
1293.58228	5.45030E-10
1293.70667	5.45084E-10
1293.83118	5.45137E-10
1293.95557	5.45189E-10
1294.08008	5.45240E-10
1294.20447	5.45290E-10
1294.32898	5.45340E-10
1294.45337	5.45388E-10
1294.57788	5.45435E-10
1294.70227	5.45482E-10
1294.82678	5.45528E-10
1294.95117	5.45573E-10
1295.07568	5.45618E-10
1295.20020	5.45661E-10
1295.32459	5.45704E-10
1295.44910	5.45747E-10
1295.57349	5.45788E-10
1295.69800	5.45830E-10
1295.82239	5.45871E-10
1295.94690	5.45912E-10
1296.07129	5.45952E-10
1296.19580	5.45992E-10
1296.32019	5.46032E-10
1296.44470	5.46072E-10
1296.56909	5.46111E-10
1296.69360	5.46150E-10
1296.81799	5.46190E-10
1296.94251	5.46229E-10
1297.06690	5.46268E-10
1297.19141	5.46308E-10
1297.31592	5.46348E-10
1297.44031	5.46388E-10
1297.56482	5.46428E-10
1297.68921	5.46468E-10
1297.81372	5.46509E-10
1297.93811	5.46550E-10
1298.06262	5.46592E-10
1298.18701	5.46635E-10
1298.31152	5.46678E-10
1298.43591	5.46721E-10
1298.56043	5.46766E-10
1298.68481	5.46811E-10
1298.80933	5.46857E-10
1298.93372	5.46904E-10
1299.05823	5.46952E-10
1299.18274	5.47000E-10
1299.30713	5.47050E-10
1299.43164	5.47100E-10
1299.55603	5.47151E-10
1299.68054	5.47204E-10
1299.80493	5.47258E-10
1299.92944	5.47312E-10
1300.05383	5.47368E-10
1300.17835	5.47425E-10
1300.30273	5.47484E-10
1300.42725	5.47543E-10
1300.55164	5.47603E-10
1300.67615	5.47665E-10
1300.80054	5.47729E-10
1300.92505	5.47793E-10
1301.04956	5.47858E-10
1301.17395	5.47925E-10
1301.29846	5.47993E-10
1301.42285	5.48062E-10
1301.54736	5.48133E-10
1301.67175	5.48204E-10
1301.79627	5.48277E-10
1301.92065	5.48352E-10
1302.04517	5.48427E-10
1302.16956	5.48504E-10
1302.29407	5.48582E-10
1302.41846	5.48661E-10
1302.54297	5.48740E-10
1302.66736	5.48822E-10
1302.79187	5.48904E-10
1302.91638	5.48988E-10
1303.04077	5.49072E-10
1303.16528	5.49157E-10
1303.28967	5.49244E-10
1303.41419	5.49331E-10
1303.53857	5.49420E-10
1303.66309	5.49509E-10
1303.78748	5.49598E-10
1303.91199	5.49689E-10
1304.03638	5.49781E-10
1304.16089	5.49873E-10
1304.28528	5.49965E-10
1304.40979	5.50058E-10
1304.53418	5.50152E-10
1304.65869	5.50246E-10
1304.78320	5.50341E-10
1304.90759	5.50437E-10
1305.03210	5.50532E-10
1305.15649	5.50628E-10
1305.28101	5.50724E-10
1305.40540	5.50820E-10
1305.52991	5.50916E-10
1305.65430	5.51012E-10
1305.77881	5.51108E-10
1305.90320	5.51205E-10
1306.02771	5.51301E-10
1306.15210	5.51397E-10
1306.27661	5.51493E-10
1306.40100	5.51589E-10
1306.52551	5.51684E-10
1306.65002	5.51779E-10
1306.77441	5.51873E-10
1306.89893	5.51968E-10
1307.02332	5.52062E-10
1307.14783	5.52155E-10
1307.27222	5.52247E-10
1307.39673	5.52339E-10
1307.52112	5.52431E-10
1307.64563	5.52522E-10
1307.77002	5.52611E-10
1307.89453	5.52700E-10
1308.01892	5.52789E-10
1308.14343	5.52876E-10
1308.26782	5.52963E-10
1308.39233	5.53049E-10
1308.51685	5.53134E-10
1308.64124	5.53218E-10
1308.76575	5.53300E-10
1308.89014	5.53382E-10
1309.01465	5.53463E-10
1309.13904	5.53543E-10
1309.26355	5.53622E-10
1309.38794	5.53700E-10
1309.51245	5.53777E-10
1309.63684	5.53852E-10
1309.76135	5.53926E-10
1309.88574	5.53999E-10
1310.01025	5.54071E-10
1310.13464	5.54142E-10
1310.25916	5.54212E-10
1310.38367	5.54281E-10
1310.50806	5.54348E-10
1310.63257	5.54414E-10
1310.75696	5.54480E-10
1310.88147	5.54544E-10
1311.00586	5.54607E-10
1311.13037	5.54669E-10
1311.25476	5.54731E-10
1311.37927	5.54791E-10
1311.50366	5.54849E-10
1311.62817	5.54907E-10
1311.75256	5.54964E-10
1311.87708	5.55020E-10
1312.00147	5.55074E-10
1312.12598	5.55128E-10
1312.25049	5.55180E-10
1312.37488	5.55232E-10
1312.49939	5.55283E-10
1312.62378	5.55333E-10
1312.74829	5.55383E-10
1312.87268	5.55431E-10
1312.99719	5.55478E-10
1313.12158	5.55525E-10
1313.24609	5.55571E-10
1313.37048	5.55616E-10
1313.49500	5.55661E-10
1313.61939	5.55705E-10
1313.74390	5.55749E-10
1313.86829	5.55793E-10
1313.99280	5.55835E-10
1314.11731	5.55878E-10
1314.24170	5.55919E-10
1314.36621	5.55961E-10
1314.49060	5.56001E-10
1314.61511	5.56042E-10
1314.73950	5.56082E-10
1314.86401	5.56121E-10
1314.98840	5.56160E-10
1315.11292	5.56199E-10
1315.23731	5.56238E-10
1315.36182	5.56276E-10
1315.48621	5.56315E-10
1315.61072	5.56353E-10
1315.73511	5.56392E-10
1315.85962	5.56430E-10
1315.98413	5.56468E-10
1316.10852	5.56506E-10
1316.23303	5.56543E-10
1316.35742	5.56581E-10
1316.48193	5.56619E-10
1316.60632	5.56656E-10
1316.73084	5.56694E-10
1316.85523	5.56732E-10
1316.97974	5.56769E-10
1317.10413	5.56808E-10
1317.22864	5.56845E-10
1317.35303	5.56883E-10
1317.47754	5.56921E-10
1317.60193	5.56959E-10
1317.72644	5.56998E-10
1317.85095	5.57036E-10
1317.97534	5.57075E-10
1318.09985	5.57113E-10
1318.22424	5.57152E-10
1318.34876	5.57191E-10
1318.47315	5.57230E-10
1318.59766	5.57269E-10
1318.72205	5.57308E-10
1318.84656	5.57347E-10
1318.97095	5.57386E-10
1319.09546	5.57425E-10
1319.21985	5.57465E-10
1319.34436	5.57504E-10
1319.46875	5.57544E-10
1319.59326	5.57584E-10
1319.71765	5.57623E-10
1319.84216	5.57664E-10
1319.96668	5.57703E-10
1320.09106	5.57744E-10
1320.21558	5.57784E-10
1320.33997	5.57824E-10
1320.46448	5.57864E-10
1320.58887	5.57904E-10
1320.71338	5.57945E-10
1320.83777	5.57985E-10
1320.96228	5.58026E-10
1321.08667	5.58066E-10
1321.21118	5.58107E-10
1321.33557	5.58147E-10
1321.46008	5.58187E-10
1321.58447	5.58228E-10
1321.70898	5.58268E-10
1321.83350	5.58308E-10
1321.95789	5.58348E-10
1322.08240	5.58388E-10
1322.20679	5.58428E-10
1322.33130	5.58469E-10
1322.45569	5.58509E-10
1322.58020	5.58549E-10
1322.70459	5.58589E-10
1322.82910	5.58628E-10
1322.95349	5.58668E-10
1323.07800	5.58708E-10
1323.20239	5.58747E-10
1323.32690	5.58787E-10
1323.45129	5.58826E-10
1323.57581	5.58865E-10
1323.70032	5.58904E-10
1323.82471	5.58944E-10
1323.94922	5.58983E-10
1324.07361	5.59022E-10
1324.19812	5.59061E-10
1324.32251	5.59100E-10
1324.44702	5.59139E-10
1324.57141	5.59179E-10
1324.69592	5.59218E-10
1324.82031	5.59256E-10
1324.94482	5.59296E-10
1325.06921	5.59335E-10
1325.19373	5.59375E-10
1325.31812	5.59414E-10
1325.44263	5.59453E-10
1325.56714	5.59492E-10
1325.69153	5.59532E-10
1325.81604	5.59572E-10
1325.94043	5.59612E-10
1326.06494	5.59653E-10
1326.18933	5.59693E-10
1326.31384	5.59733E-10
1326.43823	5.59774E-10
1326.56274	5.59815E-10
1326.68713	5.59856E-10
1326.81165	5.59898E-10
1326.93604	5.59940E-10
1327.06055	5.59981E-10
1327.18494	5.60024E-10
1327.30945	5.60066E-10
1327.43396	5.60109E-10
1327.55835	5.60153E-10
1327.68286	5.60197E-10
1327.80725	5.60241E-10
1327.93176	5.60286E-10
1328.05615	5.60331E-10
1328.18066	5.60377E-10
1328.30505	5.60424E-10
1328.42957	5.60471E-10
1328.55396	5.60519E-10
1328.67847	5.60567E-10
1328.80286	5.60616E-10
1328.92737	5.60666E-10
1329.05176	5.60716E-10
1329.17627	5.60767E-10
1329.30078	5.60818E-10
1329.42517	5.60870E-10
1329.54968	5.60923E-10
1329.67407	5.60978E-10
1329.79858	5.61033E-10
1329.92297	5.61088E-10
1330.04749	5.61144E-10
1330.17188	5.61202E-10
1330.29639	5.61260E-10
1330.42078	5.61319E-10
1330.54529	5.61378E-10
1330.66968	5.61439E-10
1330.79419	5.61500E-10
1330.91858	5.61563E-10
1331.04309	5.61626E-10
1331.16760	5.61691E-10
1331.29199	5.61755E-10
1331.41650	5.61821E-10
1331.54089	5.61888E-10
1331.66541	5.61956E-10
1331.78980	5.62025E-10
1331.91431	5.62094E-10
1332.03870	5.62164E-10
1332.16321	5.62235E-10
1332.28760	5.62308E-10
1332.41211	5.62381E-10
1332.53650	5.62455E-10
1332.66101	5.62529E-10
1332.78540	5.62605E-10
1332.90991	5.62682E-10
1333.03442	5.62759E-10
1333.15881	5.62837E-10
1333.28333	5.62916E-10
1333.40772	5.62996E-10
1333.53223	5.63076E-10
1333.65662	5.63158E-10
1333.78113	5.63240E-10
1333.90552	5.63323E-10
1334.03003	5.63407E-10
1334.15442	5.63491E-10
1334.27893	5.63576E-10
1334.40332	5.63662E-10
1334.52783	5.63749E-10
1334.65222	5.63836E-10
1334.77673	5.63924E-10
1334.90125	5.64012E-10
1335.02564	5.64101E-10
1335.15015	5.64190E-10
1335.27454	5.64281E-10
1335.39905	5.64371E-10
1335.52344	5.64462E-10
1335.64795	5.64554E-10
1335.77234	5.64647E-10
1335.89685	5.64739E-10
1336.02124	5.64832E-10
1336.14575	5.64926E-10
1336.27014	5.65019E-10
1336.39465	5.65114E-10
1336.51904	5.65208E-10
1336.64356	5.65303E-10
1336.76807	5.65398E-10
1336.89246	5.65493E-10
1337.01697	5.65589E-10
1337.14136	5.65685E-10
1337.26587	5.65781E-10
1337.39026	5.65877E-10
1337.51477	5.65974E-10
1337.63916	5.66071E-10
1337.76367	5.66167E-10
1337.88806	5.66265E-10
1338.01257	5.66362E-10
1338.13696	5.66459E-10
1338.26148	5.66556E-10
1338.38586	5.66653E-10
1338.51038	5.66750E-10
1338.63489	5.66847E-10
1338.75928	5.66945E-10
1338.88379	5.67042E-10
1339.00818	5.67140E-10
1339.13269	5.67237E-10
1339.25708	5.67335E-10
1339.38159	5.67432E-10
1339.50598	5.67529E-10
1339.63049	5.67626E-10
1339.75488	5.67723E-10
1339.87940	5.67820E-10
1340.00378	5.67917E-10
1340.12830	5.68014E-10
1340.25269	5.68110E-10
1340.37720	5.68207E-10
1340.50171	5.68303E-10
1340.62610	5.68399E-10
1340.75061	5.68495E-10
1340.87500	5.68591E-10
1340.99951	5.68687E-10
1341.12390	5.68783E-10
1341.24841	5.68878E-10
1341.37280	5.68973E-10
1341.49731	5.69068E-10
1341.62170	5.69163E-10
1341.74622	5.69258E-10
1341.87061	5.69352E-10
1341.99512	5.69446E-10
1342.11951	5.69540E-10
1342.24402	5.69634E-10
1342.36841	5.69728E-10
1342.49292	5.69821E-10
1342.61743	5.69914E-10
1342.74182	5.70007E-10
1342.86633	5.70099E-10
1342.99072	5.70191E-10
1343.11523	5.70283E-10
1343.23962	5.70374E-10
1343.36414	5.70466E-10
1343.48853	5.70556E-10
1343.61304	5.70647E-10
1343.73743	5.70737E-10
1343.86194	5.70827E-10
1343.98633	5.70916E-10
1344.11084	5.71005E-10
1344.23523	5.71094E-10
1344.35974	5.71182E-10
1344.48425	5.71271E-10
1344.60864	5.71358E-10
1344.73315	5.71445E-10
1344.85754	5.71531E-10
1344.98206	5.71617E-10
1345.10645	5.71702E-10
1345.23096	5.71787E-10
1345.35535	5.71872E-10
1345.47986	5.71956E-10
1345.60425	5.72039E-10
1345.72876	5.72122E-10
1345.85315	5.72205E-10
1345.97766	5.72286E-10
1346.10205	5.72367E-10
1346.22656	5.72447E-10
1346.35107	5.72527E-10
1346.47546	5.72606E-10
1346.59998	5.72684E-10
1346.72437	5.72762E-10
1346.84888	5.72839E-10
1346.97327	5.72915E-10
1347.09778	5.72991E-10
1347.22217	5.73066E-10
1347.34668	5.73140E-10
1347.47107	5.73213E-10
1347.59558	5.73286E-10
1347.71997	5.73357E-10
1347.84448	5.73428E-10
1347.96887	5.73498E-10
1348.09338	5.73568E-10
1348.21790	5.73637E-10
1348.34229	5.73704E-10
1348.46680	5.73771E-10
1348.59119	5.73837E-10
1348.71570	5.73902E-10
1348.84009	5.73967E-10
1348.96460	5.74031E-10
1349.08899	5.74093E-10
1349.21350	5.74156E-10
1349.33789	5.74216E-10
1349.46240	5.74277E-10
1349.58679	5.74336E-10
1349.71130	5.74395E-10
1349.83569	5.74453E-10
1349.96021	5.74510E-10
1350.08472	5.74567E-10
1350.20911	5.74622E-10
1350.33362	5.74676E-10
1350.45801	5.74730E-10
1350.58252	5.74783E-10
1350.70691	5.74835E-10
1350.83142	5.74887E-10
1350.95581	5.74938E-10
1351.08032	5.74988E-10
1351.20471	5.75037E-10
1351.32922	5.75086E-10
1351.45361	5.75134E-10
1351.57813	5.75182E-10
1351.70252	5.75228E-10
1351.82703	5.75275E-10
1351.95154	5.75321E-10
1352.07593	5.75366E-10
1352.20044	5.75411E-10
1352.32483	5.75456E-10
1352.44934	5.75499E-10
1352.57373	5.75543E-10
1352.69824	5.75586E-10
1352.82263	5.75629E-10
1352.94714	5.75672E-10
1353.07153	5.75715E-10
1353.19605	5.75757E-10
1353.32044	5.75800E-10
1353.44495	5.75843E-10
1353.56934	5.75885E-10
1353.69385	5.75927E-10
1353.81836	5.75969E-10
1353.94275	5.76012E-10
1354.06726	5.76054E-10
1354.19165	5.76097E-10
1354.31616	5.76140E-10
1354.44055	5.76183E-10
1354.56506	5.76227E-10
1354.68945	5.76271E-10
1354.81397	5.76315E-10
1354.93835	5.76360E-10
1355.06287	5.76405E-10
1355.18726	5.76450E-10
1355.31177	5.76496E-10
1355.43616	5.76543E-10
1355.56067	5.76591E-10
1355.68518	5.76639E-10
1355.80957	5.76687E-10
1355.93408	5.76737E-10
1356.05847	5.76787E-10
1356.18298	5.76838E-10
1356.30737	5.76889E-10
1356.43189	5.76942E-10
1356.55627	5.76996E-10
1356.68079	5.77050E-10
1356.80518	5.77105E-10
1356.92969	5.77162E-10
1357.05408	5.77219E-10
1357.17859	5.77277E-10
1357.30298	5.77336E-10
1357.42749	5.77396E-10
1357.55200	5.77457E-10
1357.67639	5.77519E-10
1357.80090	5.77581E-10
1357.92529	5.77645E-10
1358.04981	5.77710E-10
1358.17419	5.77776E-10
1358.29871	5.77842E-10
1358.42310	5.77910E-10
1358.54761	5.77978E-10
1358.67200	5.78047E-10
1358.79651	5.78118E-10
1358.92090	5.78188E-10
1359.04541	5.78260E-10
1359.16980	5.78332E-10
1359.29431	5.78406E-10
1359.41882	5.78480E-10
1359.54321	5.78554E-10
1359.66773	5.78629E-10
1359.79211	5.78705E-10
1359.91663	5.78781E-10
1360.04102	5.78858E-10
1360.16553	5.78934E-10
1360.28992	5.79012E-10
1360.41443	5.79089E-10
1360.53882	5.79166E-10
1360.66333	5.79244E-10
1360.78772	5.79322E-10
1360.91223	5.79399E-10
1361.03662	5.79477E-10
1361.16113	5.79554E-10
1361.28565	5.79631E-10
1361.41003	5.79707E-10
1361.53455	5.79783E-10
1361.65894	5.79858E-10
1361.78345	5.79933E-10
1361.90784	5.80007E-10
1362.03235	5.80082E-10
1362.15674	5.80154E-10
1362.28125	5.80226E-10
1362.40564	5.80297E-10
1362.53015	5.80367E-10
1362.65454	5.80435E-10
1362.77905	5.80502E-10
1362.90344	5.80568E-10
1363.02795	5.80632E-10
1363.15234	5.80695E-10
1363.27686	5.80756E-10
1363.40137	5.80816E-10
1363.52576	5.80873E-10
1363.65027	5.80929E-10
1363.77466	5.80983E-10
1363.89917	5.81035E-10
1364.02356	5.81084E-10
1364.14807	5.81133E-10
1364.27246	5.81178E-10
1364.39697	5.81221E-10
1364.52136	5.81262E-10
1364.64587	5.81300E-10
1364.77026	5.81337E-10
1364.89478	5.81370E-10
1365.01917	5.81402E-10
1365.14368	5.81431E-10
1365.26819	5.81457E-10
1365.39258	5.81480E-10
1365.51709	5.81501E-10
1365.64148	5.81519E-10
1365.76599	5.81535E-10
1365.89038	5.81548E-10
1366.01489	5.81558E-10
1366.13928	5.81565E-10
1366.26379	5.81570E-10
1366.38818	5.81573E-10
1366.51270	5.81572E-10
1366.63709	5.81569E-10
1366.76160	5.81564E-10
1366.88599	5.81556E-10
1367.01050	5.81545E-10
1367.13501	5.81532E-10
1367.25940	5.81517E-10
1367.38391	5.81499E-10
1367.50830	5.81479E-10
1367.63281	5.81457E-10
1367.75720	5.81433E-10
1367.88171	5.81407E-10
1368.00610	5.81379E-10
1368.13062	5.81349E-10
1368.25501	5.81317E-10
1368.37952	5.81284E-10
1368.50391	5.81249E-10
1368.62842	5.81212E-10
1368.75281	5.81174E-10
1368.87732	5.81135E-10
1369.00183	5.81095E-10
1369.12622	5.81054E-10
1369.25073	5.81012E-10
1369.37512	5.80969E-10
1369.49963	5.80926E-10
1369.62402	5.80883E-10
1369.74854	5.80839E-10
1369.87293	5.80795E-10
1369.99744	5.80750E-10
1370.12183	5.80706E-10
1370.24634	5.80663E-10
1370.37073	5.80620E-10
1370.49524	5.80577E-10
1370.61963	5.80536E-10
1370.74414	5.80496E-10
1370.86865	5.80456E-10
1370.99304	5.80418E-10
1371.11755	5.80381E-10
1371.24194	5.80346E-10
1371.36646	5.80313E-10
1371.49085	5.80282E-10
1371.61536	5.80253E-10
1371.73975	5.80226E-10
1371.86426	5.80201E-10
1371.98865	5.80179E-10
1372.11316	5.80160E-10
1372.23755	5.80143E-10
1372.36206	5.80130E-10
1372.48645	5.80120E-10
1372.61096	5.80113E-10
1372.73547	5.80109E-10
1372.85986	5.80109E-10
1372.98438	5.80113E-10
1373.10877	5.80120E-10
1373.23328	5.80132E-10
1373.35767	5.80148E-10
1373.48218	5.80167E-10
1373.60657	5.80191E-10
1373.73108	5.80219E-10
1373.85547	5.80251E-10
1373.97998	5.80289E-10
1374.10437	5.80331E-10
1374.22888	5.80377E-10
1374.35327	5.80428E-10
1374.47778	5.80484E-10
1374.60230	5.80545E-10
1374.72669	5.80610E-10
1374.85120	5.80680E-10
1374.97559	5.80755E-10
1375.10010	5.80835E-10
1375.22449	5.80920E-10
1375.34900	5.81010E-10
1375.47339	5.81104E-10
1375.59790	5.81204E-10
1375.72229	5.81307E-10
1375.84680	5.81417E-10
1375.97119	5.81531E-10
1376.09570	5.81650E-10
1376.22009	5.81773E-10
1376.34460	5.81901E-10
1376.46912	5.82033E-10
1376.59351	5.82170E-10
1376.71802	5.82311E-10
1376.84241	5.82456E-10
1376.96692	5.82606E-10
1377.09131	5.82759E-10
1377.21582	5.82917E-10
1377.34021	5.83077E-10
1377.46472	5.83242E-10
1377.58911	5.83410E-10
1377.71362	5.83581E-10
1377.83801	5.83756E-10
1377.96252	5.83933E-10
1378.08691	5.84113E-10
1378.21143	5.84295E-10
1378.33594	5.84480E-10
1378.46033	5.84667E-10
1378.58484	5.84857E-10
1378.70923	5.85047E-10
1378.83374	5.85240E-10
1378.95813	5.85434E-10
1379.08264	5.85629E-10
1379.20703	5.85824E-10
1379.33154	5.86021E-10
1379.45593	5.86217E-10
1379.58044	5.86414E-10
1379.70483	5.86611E-10
1379.82935	5.86808E-10
1379.95374	5.87005E-10
1380.07825	5.87199E-10
1380.20276	5.87394E-10
1380.32715	5.87587E-10
1380.45166	5.87778E-10
1380.57605	5.87968E-10
1380.70056	5.88156E-10
1380.82495	5.88342E-10
1380.94946	5.88525E-10
1381.07385	5.88705E-10
1381.19836	5.88883E-10
1381.32275	5.89057E-10
1381.44727	5.89229E-10
1381.57166	5.89395E-10
1381.69617	5.89559E-10
1381.82056	5.89718E-10
1381.94507	5.89873E-10
1382.06958	5.90023E-10
1382.19397	5.90169E-10
1382.31848	5.90310E-10
1382.44287	5.90445E-10
1382.56738	5.90576E-10
1382.69177	5.90701E-10
1382.81628	5.90820E-10
1382.94067	5.90934E-10
1383.06519	5.91042E-10
1383.18958	5.91144E-10
1383.31409	5.91240E-10
1383.43848	5.91329E-10
1383.56299	5.91413E-10
1383.68738	5.91490E-10
1383.81189	5.91560E-10
1383.93640	5.91625E-10
1384.06079	5.91682E-10
1384.18530	5.91733E-10
1384.30969	5.91776E-10
1384.43420	5.91813E-10
1384.55859	5.91844E-10
1384.68311	5.91868E-10
1384.80750	5.91885E-10
1384.93201	5.91895E-10
1385.05640	5.91899E-10
1385.18091	5.91896E-10
1385.30530	5.91886E-10
1385.42981	5.91870E-10
1385.55420	5.91847E-10
1385.67871	5.91817E-10
1385.80310	5.91782E-10
1385.92761	5.91740E-10
1386.05212	5.91693E-10
1386.17651	5.91639E-10
1386.30103	5.91580E-10
1386.42542	5.91515E-10
1386.54993	5.91445E-10
1386.67432	5.91369E-10
1386.79883	5.91288E-10
1386.92322	5.91202E-10
1387.04773	5.91111E-10
1387.17212	5.91016E-10
1387.29663	5.90916E-10
1387.42102	5.90813E-10
1387.54553	5.90705E-10
1387.66992	5.90594E-10
1387.79443	5.90479E-10
1387.91895	5.90361E-10
1388.04334	5.90239E-10
1388.16785	5.90116E-10
1388.29224	5.89989E-10
1388.41675	5.89861E-10
1388.54114	5.89731E-10
1388.66565	5.89599E-10
1388.79004	5.89465E-10
1388.91455	5.89331E-10
1389.03894	5.89195E-10
1389.16345	5.89058E-10
1389.28784	5.88921E-10
1389.41235	5.88784E-10
1389.53674	5.88647E-10
1389.66126	5.88511E-10
1389.78577	5.88375E-10
1389.91016	5.88240E-10
1390.03467	5.88106E-10
1390.15906	5.87973E-10
1390.28357	5.87842E-10
1390.40796	5.87712E-10
1390.53247	5.87585E-10
1390.65686	5.87460E-10
1390.78137	5.87337E-10
1390.90576	5.87217E-10
1391.03027	5.87101E-10
1391.15466	5.86987E-10
1391.27918	5.86876E-10
1391.40356	5.86769E-10
1391.52808	5.86666E-10
1391.65259	5.86567E-10
1391.77698	5.86472E-10
1391.90149	5.86380E-10
1392.02588	5.86294E-10
1392.15039	5.86211E-10
1392.27478	5.86133E-10
1392.39929	5.86060E-10
1392.52368	5.85992E-10
1392.64819	5.85929E-10
1392.77258	5.85871E-10
1392.89710	5.85817E-10
1393.02148	5.85770E-10
1393.14600	5.85727E-10
1393.27039	5.85690E-10
1393.39490	5.85658E-10
1393.51941	5.85631E-10
1393.64380	5.85610E-10
1393.76831	5.85594E-10
1393.89270	5.85584E-10
1394.01721	5.85579E-10
1394.14160	5.85580E-10
1394.26611	5.85585E-10
1394.39050	5.85596E-10
1394.51502	5.85613E-10
1394.63940	5.85635E-10
1394.76392	5.85662E-10
1394.88831	5.85694E-10
1395.01282	5.85731E-10
1395.13721	5.85773E-10
1395.26172	5.85819E-10
1395.38623	5.85871E-10
1395.51062	5.85926E-10
1395.63513	5.85987E-10
1395.75952	5.86052E-10
1395.88403	5.86121E-10
1396.00842	5.86193E-10
1396.13294	5.86270E-10
1396.25732	5.86351E-10
1396.38184	5.86435E-10
1396.50623	5.86522E-10
1396.63074	5.86613E-10
1396.75513	5.86706E-10
1396.87964	5.86803E-10
1397.00403	5.86901E-10
1397.12854	5.87003E-10
1397.25305	5.87107E-10
1397.37744	5.87212E-10
1397.50195	5.87320E-10
1397.62634	5.87428E-10
1397.75085	5.87539E-10
1397.87524	5.87650E-10
1397.99976	5.87762E-10
1398.12415	5.87876E-10
1398.24866	5.87989E-10
1398.37305	5.88103E-10
1398.49756	5.88217E-10
1398.62195	5.88331E-10
1398.74646	5.88444E-10
1398.87085	5.88557E-10
1398.99536	5.88670E-10
1399.11987	5.88781E-10
1399.24426	5.88891E-10
1399.36877	5.89000E-10
1399.49316	5.89108E-10
1399.61768	5.89214E-10
1399.74207	5.89317E-10
1399.86658	5.89419E-10
1399.99097	5.89518E-10
1400.11548	5.89615E-10
1400.23987	5.89709E-10
1400.36438	5.89801E-10
1400.48877	5.89890E-10
1400.61328	5.89975E-10
1400.73767	5.90058E-10
1400.86218	5.90137E-10
1400.98669	5.90212E-10
1401.11108	5.90285E-10
1401.23560	5.90354E-10
1401.35999	5.90418E-10
1401.48450	5.90479E-10
1401.60889	5.90537E-10
1401.73340	5.90590E-10
1401.85779	5.90639E-10
1401.98230	5.90684E-10
1402.10669	5.90725E-10
1402.23120	5.90762E-10
1402.35559	5.90796E-10
1402.48010	5.90825E-10
1402.60449	5.90850E-10
1402.72900	5.90871E-10
1402.85352	5.90887E-10
1402.97791	5.90900E-10
1403.10242	5.90909E-10
1403.22681	5.90913E-10
1403.35132	5.90914E-10
1403.47571	5.90911E-10
1403.60022	5.90904E-10
1403.72461	5.90893E-10
1403.84912	5.90879E-10
1403.97351	5.90862E-10
1404.09802	5.90841E-10
1404.22241	5.90816E-10
1404.34692	5.90789E-10
1404.47131	5.90758E-10
1404.59583	5.90725E-10
1404.72034	5.90688E-10
1404.84473	5.90650E-10
1404.96924	5.90609E-10
1405.09363	5.90565E-10
1405.21814	5.90520E-10
1405.34253	5.90472E-10
1405.46704	5.90423E-10
1405.59143	5.90372E-10
1405.71594	5.90320E-10
1405.84033	5.90266E-10
1405.96484	5.90211E-10
1406.08923	5.90156E-10
1406.21375	5.90099E-10
1406.33814	5.90042E-10
1406.46265	5.89984E-10
1406.58716	5.89927E-10
1406.71155	5.89869E-10
1406.83606	5.89812E-10
1406.96045	5.89754E-10
1407.08496	5.89698E-10
1407.20935	5.89642E-10
1407.33386	5.89586E-10
1407.45825	5.89532E-10
1407.58276	5.89479E-10
1407.70715	5.89427E-10
1407.83167	5.89377E-10
1407.95606	5.89329E-10
1408.08057	5.89283E-10
1408.20496	5.89239E-10
1408.32947	5.89197E-10
1408.45386	5.89156E-10
1408.57837	5.89119E-10
1408.70288	5.89084E-10
1408.82727	5.89052E-10
1408.95178	5.89022E-10
1409.07617	5.88995E-10
1409.20068	5.88972E-10
1409.32507	5.88952E-10
1409.44959	5.88934E-10
1409.57398	5.88920E-10
1409.69849	5.88910E-10
1409.82288	5.88903E-10
1409.94739	5.88900E-10
1410.07178	5.88899E-10
1410.19629	5.88903E-10
1410.32068	5.88910E-10
1410.44519	5.88920E-10
1410.56970	5.88935E-10
1410.69409	5.88952E-10
1410.81860	5.88974E-10
1410.94299	5.89000E-10
1411.06751	5.89029E-10
1411.19190	5.89062E-10
1411.31641	5.89098E-10
1411.44080	5.89138E-10
1411.56531	5.89182E-10
1411.68970	5.89229E-10
1411.81421	5.89280E-10
1411.93860	5.89334E-10
1412.06311	5.89392E-10
1412.18750	5.89453E-10
1412.31201	5.89517E-10
1412.43652	5.89584E-10
1412.56091	5.89655E-10
1412.68543	5.89728E-10
1412.80981	5.89804E-10
1412.93433	5.89883E-10
1413.05872	5.89965E-10
1413.18323	5.90049E-10
1413.30762	5.90136E-10
1413.43213	5.90224E-10
1413.55652	5.90315E-10
1413.68103	5.90407E-10
1413.80542	5.90502E-10
1413.92993	5.90598E-10
1414.05432	5.90696E-10
1414.17883	5.90795E-10
1414.30335	5.90896E-10
1414.42773	5.90997E-10
1414.55225	5.91100E-10
1414.67664	5.91203E-10
1414.80115	5.91308E-10
1414.92554	5.91413E-10
1415.05005	5.91518E-10
1415.17444	5.91623E-10
1415.29895	5.91728E-10
1415.42334	5.91834E-10
1415.54785	5.91938E-10
1415.67224	5.92043E-10
1415.79675	5.92147E-10
1415.92114	5.92250E-10
1416.04565	5.92353E-10
1416.17017	5.92455E-10
1416.29456	5.92555E-10
1416.41907	5.92655E-10
1416.54346	5.92753E-10
1416.66797	5.92850E-10
1416.79236	5.92944E-10
1416.91687	5.93038E-10
1417.04126	5.93129E-10
1417.16577	5.93218E-10
1417.29016	5.93305E-10
1417.41467	5.93391E-10
1417.53906	5.93474E-10
1417.66357	5.93555E-10
1417.78796	5.93633E-10
1417.91248	5.93709E-10
1418.03699	5.93783E-10
1418.16138	5.93854E-10
1418.28589	5.93922E-10
1418.41028	5.93988E-10
1418.53479	5.94051E-10
1418.65918	5.94111E-10
1418.78369	5.94168E-10
1418.90808	5.94223E-10
1419.03259	5.94275E-10
1419.15698	5.94325E-10
1419.28149	5.94371E-10
1419.40588	5.94415E-10
1419.53040	5.94456E-10
1419.65479	5.94494E-10
1419.77930	5.94530E-10
1419.90381	5.94563E-10
1420.02820	5.94594E-10
1420.15271	5.94622E-10
1420.27710	5.94649E-10
1420.40161	5.94673E-10
1420.52600	5.94694E-10
1420.65051	5.94713E-10
1420.77490	5.94730E-10
1420.89941	5.94745E-10
1421.02380	5.94758E-10
1421.14832	5.94768E-10
1421.27271	5.94778E-10
1421.39722	5.94785E-10
1421.52161	5.94792E-10
1421.64612	5.94796E-10
1421.77063	5.94800E-10
1421.89502	5.94802E-10
1422.01953	5.94803E-10
1422.14392	5.94804E-10
1422.26843	5.94804E-10
1422.39282	5.94802E-10
1422.51733	5.94800E-10
1422.64172	5.94798E-10
1422.76624	5.94795E-10
1422.89063	5.94793E-10
1423.01514	5.94790E-10
1423.13953	5.94787E-10
1423.26404	5.94785E-10
1423.38843	5.94783E-10
1423.51294	5.94781E-10
1423.63745	5.94781E-10
1423.76184	5.94781E-10
1423.88635	5.94782E-10
1424.01074	5.94783E-10
1424.13525	5.94786E-10
1424.25964	5.94791E-10
1424.38416	5.94796E-10
1424.50855	5.94803E-10
1424.63306	5.94811E-10
1424.75745	5.94822E-10
1424.88196	5.94834E-10
1425.00635	5.94849E-10
1425.13086	5.94865E-10
1425.25525	5.94883E-10
1425.37976	5.94903E-10
1425.50427	5.94925E-10
1425.62866	5.94951E-10
1425.75317	5.94977E-10
1425.87756	5.95007E-10
1426.00208	5.95039E-10
1426.12647	5.95074E-10
1426.25098	5.95111E-10
1426.37537	5.95151E-10
1426.49988	5.95193E-10
1426.62427	5.95238E-10
1426.74878	5.95286E-10
1426.87317	5.95337E-10
1426.99768	5.95390E-10
1427.12207	5.95446E-10
1427.24658	5.95504E-10
1427.37109	5.95565E-10
1427.49548	5.95629E-10
1427.62000	5.95696E-10
1427.74439	5.95765E-10
1427.86890	5.95837E-10
1427.99329	5.95910E-10
1428.11780	5.95987E-10
1428.24219	5.96066E-10
1428.36670	5.96148E-10
1428.49109	5.96231E-10
1428.61560	5.96318E-10
1428.73999	5.96406E-10
1428.86450	5.96496E-10
1428.98889	5.96588E-10
1429.11340	5.96682E-10
1429.23792	5.96778E-10
1429.36231	5.96875E-10
1429.48682	5.96975E-10
1429.61121	5.97075E-10
1429.73572	5.97177E-10
1429.86011	5.97281E-10
1429.98462	5.97386E-10
1430.10901	5.97491E-10
1430.23352	5.97598E-10
1430.35791	5.97705E-10
1430.48242	5.97813E-10
1430.60681	5.97921E-10
1430.73132	5.98030E-10
1430.85571	5.98139E-10
1430.98023	5.98249E-10
1431.10461	5.98358E-10
1431.22913	5.98468E-10
1431.35364	5.98577E-10
1431.47803	5.98686E-10
1431.60254	5.98795E-10
1431.72693	5.98903E-10
1431.85144	5.99011E-10
1431.97583	5.99118E-10
1432.10034	5.99223E-10
1432.22473	5.99327E-10
1432.34924	5.99430E-10
1432.47363	5.99532E-10
1432.59815	5.99633E-10
1432.72253	5.99732E-10
1432.84705	5.99829E-10
1432.97144	5.99925E-10
1433.09595	6.00019E-10
1433.22046	6.00111E-10
1433.34485	6.00200E-10
1433.46936	6.00288E-10
1433.59375	6.00374E-10
1433.71826	6.00457E-10
1433.84265	6.00538E-10
1433.96716	6.00617E-10
1434.09155	6.00693E-10
1434.21606	6.00767E-10
1434.34045	6.00838E-10
1434.46497	6.00906E-10
1434.58936	6.00972E-10
1434.71387	6.01035E-10
1434.83826	6.01096E-10
1434.96277	6.01154E-10
1435.08728	6.01209E-10
1435.21167	6.01261E-10
1435.33618	6.01311E-10
1435.46057	6.01358E-10
1435.58508	6.01402E-10
1435.70947	6.01444E-10
1435.83398	6.01483E-10
1435.95837	6.01519E-10
1436.08289	6.01553E-10
1436.20728	6.01584E-10
1436.33179	6.01613E-10
1436.45618	6.01640E-10
1436.58069	6.01664E-10
1436.70508	6.01686E-10
1436.82959	6.01706E-10
1436.95410	6.01724E-10
1437.07849	6.01739E-10
1437.20300	6.01753E-10
1437.32739	6.01765E-10
1437.45190	6.01775E-10
1437.57629	6.01783E-10
1437.70081	6.01791E-10
1437.82520	6.01796E-10
1437.94971	6.01801E-10
1438.07410	6.01804E-10
1438.19861	6.01805E-10
1438.32300	6.01806E-10
1438.44751	6.01807E-10
1438.57190	6.01807E-10
1438.69641	6.01806E-10
1438.82092	6.01804E-10
1438.94531	6.01802E-10
1439.06982	6.01802E-10
1439.19421	6.01800E-10
1439.31873	6.01798E-10
1439.44312	6.01798E-10
1439.56763	6.01798E-10
1439.69202	6.01798E-10
1439.81653	6.01799E-10
1439.94092	6.01802E-10
1440.06543	6.01804E-10
1440.18982	6.01808E-10
1440.31433	6.01814E-10
1440.43872	6.01820E-10
1440.56323	6.01829E-10
1440.68774	6.01839E-10
1440.81213	6.01851E-10
1440.93665	6.01865E-10
1441.06104	6.01882E-10
1441.18555	6.01900E-10
1441.30994	6.01920E-10
1441.43445	6.01944E-10
1441.55884	6.01969E-10
1441.68335	6.01997E-10
1441.80774	6.02028E-10
1441.93225	6.02061E-10
1442.05664	6.02098E-10
1442.18115	6.02137E-10
1442.30554	6.02179E-10
1442.43005	6.02224E-10
1442.55457	6.02273E-10
1442.67896	6.02324E-10
1442.80347	6.02379E-10
1442.92786	6.02437E-10
1443.05237	6.02499E-10
1443.17676	6.02563E-10
1443.30127	6.02632E-10
1443.42566	6.02704E-10
1443.55017	6.02779E-10
1443.67456	6.02858E-10
1443.79907	6.02940E-10
1443.92346	6.03025E-10
1444.04797	6.03115E-10
1444.17236	6.03207E-10
1444.29688	6.03303E-10
1444.42139	6.03403E-10
1444.54578	6.03506E-10
1444.67029	6.03613E-10
1444.79468	6.03722E-10
1444.91919	6.03836E-10
1445.04358	6.03952E-10
1445.16809	6.04072E-10
1445.29248	6.04194E-10
1445.41699	6.04320E-10
1445.54138	6.04449E-10
1445.66589	6.04580E-10
1445.79028	6.04714E-10
1445.91480	6.04851E-10
1446.03919	6.04990E-10
1446.16370	6.05132E-10
1446.28821	6.05277E-10
1446.41260	6.05424E-10
1446.53711	6.05573E-10
1446.66150	6.05725E-10
1446.78601	6.05878E-10
1446.91040	6.06034E-10
1447.03491	6.06191E-10
1447.15930	6.06350E-10
1447.28381	6.06510E-10
1447.40820	6.06673E-10
1447.53272	6.06836E-10
1447.65710	6.07001E-10
1447.78162	6.07167E-10
1447.90601	6.07334E-10
1448.03052	6.07502E-10
1448.15503	6.07671E-10
1448.27942	6.07840E-10
1448.40393	6.08011E-10
1448.52832	6.08181E-10
1448.65283	6.08351E-10
1448.77722	6.08522E-10
1448.90173	6.08693E-10
1449.02612	6.08864E-10
1449.15064	6.09034E-10
1449.27502	6.09204E-10
1449.39954	6.09373E-10
1449.52393	6.09543E-10
1449.64844	6.09711E-10
1449.77283	6.09879E-10
1449.89734	6.10046E-10
1450.02185	6.10211E-10
1450.14624	6.10376E-10
1450.27075	6.10540E-10
1450.39514	6.10702E-10
1450.51965	6.10862E-10
1450.64404	6.11021E-10
1450.76856	6.11180E-10
1450.89294	6.11336E-10
1451.01746	6.11491E-10
1451.14185	6.11644E-10
1451.26636	6.11795E-10
1451.39075	6.11945E-10
1451.51526	6.12093E-10
1451.63965	6.12238E-10
1451.76416	6.12382E-10
1451.88855	6.12524E-10
1452.01306	6.12664E-10
1452.13757	6.12801E-10
1452.26196	6.12937E-10
1452.38648	6.13070E-10
1452.51086	6.13202E-10
1452.63538	6.13331E-10
1452.75977	6.13458E-10
1452.88428	6.13583E-10
1453.00867	6.13706E-10
1453.13318	6.13827E-10
1453.25757	6.13946E-10
1453.38208	6.14063E-10
1453.50647	6.14178E-10
1453.63098	6.14292E-10
1453.75537	6.14403E-10
1453.87988	6.14513E-10
1454.00440	6.14620E-10
1454.12878	6.14726E-10
1454.25330	6.14831E-10
1454.37769	6.14934E-10
1454.50220	6.15036E-10
1454.62659	6.15136E-10
1454.75110	6.15235E-10
1454.87549	6.15333E-10
1455.00000	6.15429E-10
1455.12439	6.15525E-10
1455.24890	6.15619E-10
1455.37329	6.15713E-10
1455.49780	6.15806E-10
1455.62219	6.15898E-10
1455.74670	6.15990E-10
1455.87122	6.16081E-10
1455.99561	6.16172E-10
1456.12012	6.16263E-10
1456.24451	6.16354E-10
1456.36902	6.16445E-10
1456.49341	6.16537E-10
1456.61792	6.16627E-10
1456.74231	6.16719E-10
1456.86682	6.16812E-10
1456.99121	6.16904E-10
1457.11572	6.16998E-10
1457.24011	6.17092E-10
1457.36462	6.17187E-10
1457.48901	6.17284E-10
1457.61353	6.17381E-10
1457.73804	6.17480E-10
1457.86243	6.17579E-10
1457.98694	6.17681E-10
1458.11133	6.17783E-10
1458.23584	6.17887E-10
1458.36023	6.17993E-10
1458.48474	6.18101E-10
1458.60913	6.18210E-10
1458.73364	6.18322E-10
1458.85803	6.18435E-10
1458.98254	6.18551E-10
1459.10693	6.18668E-10
1459.23145	6.18788E-10
1459.35584	6.18910E-10
1459.48035	6.19035E-10
1459.60486	6.19161E-10
1459.72925	6.19290E-10
1459.85376	6.19421E-10
1459.97815	6.19554E-10
1460.10266	6.19690E-10
1460.22705	6.19827E-10
1460.35156	6.19968E-10
1460.47595	6.20111E-10
1460.60046	6.20257E-10
1460.72485	6.20404E-10
1460.84937	6.20554E-10
1460.97376	6.20706E-10
1461.09827	6.20861E-10
1461.22266	6.21018E-10
1461.34717	6.21177E-10
1461.47168	6.21339E-10
1461.59607	6.21502E-10
1461.72058	6.21668E-10
1461.84497	6.21836E-10
1461.96948	6.22006E-10
1462.09387	6.22178E-10
1462.21838	6.22352E-10
1462.34277	6.22528E-10
1462.46729	6.22706E-10
1462.59168	6.22885E-10
1462.71619	6.23066E-10
1462.84058	6.23248E-10
1462.96509	6.23432E-10
1463.08948	6.23617E-10
1463.21399	6.23803E-10
1463.33850	6.23990E-10
1463.46289	6.24180E-10
1463.58740	6.24369E-10
1463.71179	6.24560E-10
1463.83630	6.24750E-10
1463.96069	6.24941E-10
1464.08521	6.25133E-10
1464.20960	6.25326E-10
1464.33411	6.25519E-10
1464.45850	6.25712E-10
1464.58301	6.25905E-10
1464.70740	6.26098E-10
1464.83191	6.26291E-10
1464.95630	6.26482E-10
1465.08081	6.26675E-10
1465.20532	6.26866E-10
1465.32971	6.27057E-10
1465.45422	6.27247E-10
1465.57861	6.27435E-10
1465.70313	6.27623E-10
1465.82752	6.27809E-10
1465.95203	6.27994E-10
1466.07642	6.28178E-10
1466.20093	6.28360E-10
1466.32532	6.28540E-10
1466.44983	6.28718E-10
1466.57422	6.28894E-10
1466.69873	6.29069E-10
1466.82312	6.29241E-10
1466.94763	6.29411E-10
1467.07214	6.29579E-10
1467.19653	6.29743E-10
1467.32105	6.29906E-10
1467.44544	6.30066E-10
1467.56995	6.30223E-10
1467.69434	6.30376E-10
1467.81885	6.30527E-10
1467.94324	6.30676E-10
1468.06775	6.30821E-10
1468.19214	6.30963E-10
1468.31665	6.31102E-10
1468.44104	6.31237E-10
1468.56555	6.31370E-10
1468.68994	6.31498E-10
1468.81445	6.31624E-10
1468.93897	6.31745E-10
1469.06335	6.31864E-10
1469.18787	6.31978E-10
1469.31226	6.32089E-10
1469.43677	6.32197E-10
1469.56116	6.32302E-10
1469.68567	6.32402E-10
1469.81006	6.32500E-10
1469.93457	6.32593E-10
1470.05896	6.32683E-10
1470.18347	6.32770E-10
1470.30786	6.32853E-10
1470.43237	6.32933E-10
1470.55676	6.33010E-10
1470.68127	6.33083E-10
1470.80579	6.33153E-10
1470.93018	6.33220E-10
1471.05469	6.33285E-10
1471.17908	6.33345E-10
1471.30359	6.33403E-10
1471.42798	6.33458E-10
1471.55249	6.33511E-10
1471.67688	6.33560E-10
1471.80139	6.33608E-10
1471.92578	6.33652E-10
1472.05029	6.33695E-10
1472.17468	6.33736E-10
1472.29919	6.33775E-10
1472.42358	6.33812E-10
1472.54810	6.33848E-10
1472.67261	6.33881E-10
1472.79700	6.33914E-10
1472.92151	6.33945E-10
1473.04590	6.33975E-10
1473.17041	6.34003E-10
1473.29480	6.34031E-10
1473.41931	6.34059E-10
1473.54370	6.34085E-10
1473.66821	6.34113E-10
1473.79260	6.34139E-10
1473.91711	6.34166E-10
1474.04150	6.34193E-10
1474.16602	6.34220E-10
1474.29041	6.34248E-10
1474.41492	6.34276E-10
1474.53931	6.34306E-10
1474.66382	6.34337E-10
1474.78833	6.34369E-10
1474.91272	6.34402E-10
1475.03723	6.34437E-10
1475.16162	6.34474E-10
1475.28613	6.34512E-10
1475.41052	6.34553E-10
1475.53503	6.34596E-10
1475.65942	6.34641E-10
1475.78394	6.34688E-10
1475.90833	6.34739E-10
1476.03284	6.34792E-10
1476.15723	6.34849E-10
1476.28174	6.34909E-10
1476.40613	6.34972E-10
1476.53064	6.35039E-10
1476.65515	6.35109E-10
1476.77954	6.35184E-10
1476.90405	6.35261E-10
1477.02844	6.35343E-10
1477.15295	6.35430E-10
1477.27734	6.35520E-10
1477.40186	6.35615E-10
1477.52625	6.35714E-10
1477.65076	6.35819E-10
1477.77515	6.35927E-10
1477.89966	6.36041E-10
1478.02405	6.36160E-10
1478.14856	6.36282E-10
1478.27295	6.36412E-10
1478.39746	6.36545E-10
1478.52197	6.36685E-10
1478.64636	6.36830E-10
1478.77087	6.36980E-10
1478.89526	6.37135E-10
1479.01978	6.37297E-10
1479.14417	6.37464E-10
1479.26868	6.37636E-10
1479.39307	6.37814E-10
1479.51758	6.37997E-10
1479.64197	6.38187E-10
1479.76648	6.38383E-10
1479.89087	6.38584E-10
1480.01538	6.38791E-10
1480.13977	6.39004E-10
1480.26428	6.39223E-10
1480.38879	6.39448E-10
1480.51318	6.39678E-10
1480.63770	6.39915E-10
1480.76209	6.40157E-10
1480.88660	6.40405E-10
1481.01099	6.40659E-10
1481.13550	6.40919E-10
1481.25989	6.41185E-10
1481.38440	6.41456E-10
1481.50879	6.41733E-10
1481.63330	6.42016E-10
1481.75769	6.42303E-10
1481.88220	6.42597E-10
1482.00659	6.42896E-10
1482.13110	6.43201E-10
1482.25562	6.43510E-10
1482.38001	6.43825E-10
1482.50452	6.44146E-10
1482.62891	6.44473E-10
1482.75342	6.44804E-10
1482.87781	6.45141E-10
1483.00232	6.45482E-10
1483.12671	6.45828E-10
1483.25122	6.46179E-10
1483.37561	6.46534E-10
1483.50012	6.46893E-10
1483.62451	6.47257E-10
1483.74902	6.47625E-10
1483.87341	6.47997E-10
1483.99793	6.48373E-10
1484.12244	6.48752E-10
1484.24683	6.49135E-10
1484.37134	6.49521E-10
1484.49573	6.49910E-10
1484.62024	6.50303E-10
1484.74463	6.50698E-10
1484.86914	6.51097E-10
1484.99353	6.51499E-10
1485.11804	6.51903E-10
1485.24243	6.52310E-10
1485.36694	6.52719E-10
1485.49133	6.53130E-10
1485.61585	6.53542E-10
1485.74023	6.53958E-10
1485.86475	6.54375E-10
1485.98926	6.54794E-10
1486.11365	6.55214E-10
1486.23816	6.55635E-10
1486.36255	6.56059E-10
1486.48706	6.56482E-10
1486.61145	6.56908E-10
1486.73596	6.57333E-10
1486.86035	6.57760E-10
1486.98486	6.58188E-10
1487.10925	6.58617E-10
1487.23377	6.59046E-10
1487.35815	6.59475E-10
1487.48267	6.59906E-10
1487.60706	6.60336E-10
1487.73157	6.60766E-10
1487.85608	6.61198E-10
1487.98047	6.61629E-10
1488.10498	6.62060E-10
1488.22937	6.62492E-10
1488.35388	6.62923E-10
1488.47827	6.63355E-10
1488.60278	6.63787E-10
1488.72717	6.64219E-10
1488.85169	6.64652E-10
1488.97607	6.65084E-10
1489.10059	6.65516E-10
1489.22498	6.65949E-10
1489.34949	6.66382E-10
1489.47388	6.66815E-10
1489.59839	6.67247E-10
1489.72290	6.67680E-10
1489.84729	6.68113E-10
1489.97180	6.68548E-10
1490.09619	6.68981E-10
1490.22070	6.69416E-10
1490.34509	6.69852E-10
1490.46960	6.70288E-10
1490.59399	6.70726E-10
1490.71851	6.71162E-10
1490.84290	6.71601E-10
1490.96741	6.72040E-10
1491.09180	6.72480E-10
1491.21631	6.72922E-10
1491.34070	6.73365E-10
1491.46521	6.73810E-10
1491.58972	6.74256E-10
1491.71411	6.74704E-10
1491.83862	6.75154E-10
1491.96301	6.75605E-10
1492.08752	6.76059E-10
1492.21191	6.76516E-10
1492.33643	6.76972E-10
1492.46082	6.77434E-10
1492.58533	6.77896E-10
1492.70972	6.78363E-10
1492.83423	6.78831E-10
1492.95862	6.79303E-10
1493.08313	6.79778E-10
1493.20752	6.80256E-10
1493.33203	6.80738E-10
1493.45654	6.81224E-10
1493.58093	6.81712E-10
1493.70544	6.82206E-10
1493.82983	6.82703E-10
1493.95435	6.83205E-10
1494.07874	6.83710E-10
1494.20325	6.84220E-10
1494.32764	6.84736E-10
1494.45215	6.85255E-10
1494.57654	6.85781E-10
1494.70105	6.86310E-10
1494.82544	6.86845E-10
1494.94995	6.87386E-10
1495.07434	6.87932E-10
1495.19885	6.88483E-10
1495.32336	6.89041E-10
1495.44775	6.89605E-10
1495.57227	6.90174E-10
1495.69666	6.90750E-10
1495.82117	6.91332E-10
1495.94556	6.91920E-10
1496.07007	6.92515E-10
1496.19446	6.93117E-10
1496.31897	6.93726E-10
1496.44336	6.94342E-10
1496.56787	6.94966E-10
1496.69226	6.95596E-10
1496.81677	6.96233E-10
1496.94116	6.96878E-10
1497.06567	6.97531E-10
1497.19006	6.98190E-10
1497.31458	6.98857E-10
1497.43909	6.99532E-10
1497.56348	7.00216E-10
1497.68799	7.00906E-10
1497.81238	7.01606E-10
1497.93689	7.02312E-10
1498.06128	7.03026E-10
1498.18579	7.03750E-10
1498.31018	7.04481E-10
1498.43469	7.05220E-10
1498.55908	7.05967E-10
1498.68359	7.06722E-10
1498.80798	7.07485E-10
1498.93250	7.08258E-10
1499.05689	7.09037E-10
1499.18140	7.09825E-10
1499.30591	7.10622E-10
1499.43030	7.11426E-10
1499.55481	7.12239E-10
1499.67920	7.13057E-10
1499.80371	7.13887E-10
1499.92810	7.14723E-10
1500.05261	7.15567E-10
1500.17700	7.16419E-10
1500.30151	7.17280E-10
1500.42590	7.18148E-10
1500.55042	7.19023E-10
1500.67481	7.19906E-10
1500.79932	7.20797E-10
1500.92371	7.21695E-10
1501.04822	7.22600E-10
1501.17273	7.23513E-10
1501.29712	7.24432E-10
1501.42163	7.25359E-10
1501.54602	7.26293E-10
1501.67053	7.27233E-10
1501.79492	7.28180E-10
1501.91943	7.29135E-10
1502.04382	7.30096E-10
1502.16834	7.31063E-10
1502.29273	7.32036E-10
1502.41724	7.33016E-10
1502.54163	7.34001E-10
1502.66614	7.34993E-10
1502.79053	7.35991E-10
1502.91504	7.36996E-10
1503.03955	7.38006E-10
1503.16394	7.39021E-10
1503.28845	7.40043E-10
1503.41284	7.41070E-10
1503.53735	7.42104E-10
1503.66174	7.43141E-10
1503.78626	7.44186E-10
1503.91065	7.45235E-10
1504.03516	7.46291E-10
1504.15955	7.47352E-10
1504.28406	7.48417E-10
1504.40845	7.49490E-10
1504.53296	7.50566E-10
1504.65735	7.51649E-10
1504.78186	7.52737E-10
1504.90637	7.53831E-10
1505.03076	7.54930E-10
1505.15527	7.56035E-10
1505.27966	7.57148E-10
1505.40418	7.58264E-10
1505.52856	7.59387E-10
1505.65308	7.60516E-10
1505.77747	7.61653E-10
1505.90198	7.62795E-10
1506.02637	7.63943E-10
1506.15088	7.65098E-10
1506.27527	7.66261E-10
1506.39978	7.67431E-10
1506.52417	7.68608E-10
1506.64868	7.69792E-10
1506.77319	7.70985E-10
1506.89758	7.72185E-10
1507.02210	7.73392E-10
1507.14648	7.74609E-10
1507.27100	7.75834E-10
1507.39539	7.77070E-10
1507.51990	7.78315E-10
1507.64429	7.79568E-10
1507.76880	7.80831E-10
1507.89319	7.82103E-10
1508.01770	7.83387E-10
1508.14209	7.84683E-10
1508.26660	7.85989E-10
1508.39099	7.87306E-10
1508.51550	7.88638E-10
1508.64002	7.89980E-10
1508.76440	7.91335E-10
1508.88892	7.92703E-10
1509.01331	7.94085E-10
1509.13782	7.95480E-10
1509.26221	7.96889E-10
1509.38672	7.98315E-10
1509.51111	7.99753E-10
1509.63562	8.01209E-10
1509.76001	8.02681E-10
1509.88452	8.04168E-10
1510.00891	8.05672E-10
1510.13342	8.07195E-10
1510.25781	8.08735E-10
1510.38232	8.10294E-10
1510.50684	8.11871E-10
1510.63123	8.13469E-10
1510.75574	8.15086E-10
1510.88013	8.16724E-10
1511.00464	8.18382E-10
1511.12903	8.20062E-10
1511.25354	8.21764E-10
1511.37793	8.23489E-10
1511.50244	8.25235E-10
1511.62683	8.27006E-10
1511.75134	8.28801E-10
1511.87573	8.30621E-10
1512.00024	8.32467E-10
1512.12463	8.34336E-10
1512.24915	8.36234E-10
1512.37366	8.38157E-10
1512.49805	8.40107E-10
1512.62256	8.42085E-10
1512.74695	8.44093E-10
1512.87146	8.46129E-10
1512.99585	8.48194E-10
1513.12036	8.50290E-10
1513.24475	8.52417E-10
1513.36926	8.54575E-10
1513.49365	8.56764E-10
1513.61816	8.58986E-10
1513.74255	8.61242E-10
1513.86707	8.63531E-10
1513.99146	8.65855E-10
1514.11597	8.68213E-10
1514.24048	8.70607E-10
1514.36487	8.73038E-10
1514.48938	8.75506E-10
1514.61377	8.78011E-10
1514.73828	8.80554E-10
1514.86267	8.83136E-10
1514.98718	8.85758E-10
1515.11157	8.88419E-10
1515.23608	8.91120E-10
1515.36047	8.93865E-10
1515.48499	8.96650E-10
1515.60938	8.99480E-10
1515.73389	9.02353E-10
1515.85828	9.05271E-10
1515.98279	9.08233E-10
1516.10730	9.11242E-10
1516.23169	9.14299E-10
1516.35620	9.17403E-10
1516.48059	9.20555E-10
1516.60510	9.23758E-10
1516.72949	9.27010E-10
1516.85400	9.30314E-10
1516.97839	9.33671E-10
1517.10291	9.37082E-10
1517.22730	9.40548E-10
1517.35181	9.44072E-10
1517.47620	9.47651E-10
1517.60071	9.51290E-10
1517.72510	9.54989E-10
1517.84961	9.58750E-10
1517.97412	9.62577E-10
1518.09851	9.66466E-10
1518.22302	9.70423E-10
1518.34741	9.74448E-10
1518.47192	9.78544E-10
1518.59631	9.82714E-10
1518.72083	9.86958E-10
1518.84522	9.91280E-10
1518.96973	9.95681E-10
1519.09412	1.00017E-09
1519.21863	1.00474E-09
1519.34302	1.00939E-09
1519.46753	1.01414E-09
1519.59192	1.01899E-09
1519.71643	1.02393E-09
1519.84082	1.02898E-09
1519.96533	1.03413E-09
1520.08984	1.03940E-09
1520.21423	1.04478E-09
1520.33875	1.05028E-09
1520.46314	1.05591E-09
1520.58765	1.06166E-09
1520.71204	1.06756E-09
1520.83655	1.07360E-09
1520.96094	1.07979E-09
1521.08545	1.08614E-09
1521.20984	1.09265E-09
1521.33435	1.09934E-09
1521.45874	1.10621E-09
1521.58325	1.11327E-09
1521.70764	1.12053E-09
1521.83215	1.12801E-09
1521.95667	1.13570E-09
1522.08106	1.14364E-09
1522.20557	1.15182E-09
1522.32996	1.16027E-09
1522.45447	1.16899E-09
1522.57886	1.17800E-09
1522.70337	1.18733E-09
1522.82776	1.19698E-09
1522.95227	1.20698E-09
1523.07666	1.21735E-09
1523.20117	1.22811E-09
1523.32556	1.23928E-09
1523.45007	1.25090E-09
1523.57446	1.26299E-09
1523.69898	1.27557E-09
1523.82349	1.28869E-09
1523.94788	1.30238E-09
1524.07239	1.31668E-09
1524.19678	1.33163E-09
1524.32129	1.34728E-09
1524.44568	1.36367E-09
1524.57019	1.38087E-09
1524.69458	1.39893E-09
1524.81909	1.41791E-09
1524.94348	1.43790E-09
1525.06799	1.45897E-09
1525.19238	1.48121E-09
1525.31690	1.50471E-09
1525.44128	1.52958E-09
1525.56580	1.55596E-09
1525.69031	1.58396E-09
1525.81470	1.61374E-09
1525.93921	1.64547E-09
1526.06360	1.67934E-09
1526.18811	1.71555E-09
1526.31250	1.75437E-09
1526.43701	1.79605E-09
1526.56140	1.84093E-09
1526.68591	1.88937E-09
1526.81030	1.94179E-09
1526.93481	1.99868E-09
1527.05920	2.06064E-09
1527.18372	2.12836E-09
1527.30811	2.20268E-09
1527.43262	2.28459E-09
1527.55713	2.37538E-09
1527.68152	2.47663E-09
1527.80603	2.59038E-09
1527.93042	2.71932E-09
1528.05493	2.86711E-09
1528.17932	3.03884E-09
1528.30383	3.24185E-09
1528.42822	3.48710E-09
1528.55273	3.79139E-09
1528.67712	4.18112E-09
1528.80164	4.69726E-09
1528.92603	5.39355E-09
1529.05054	6.26089E-09
1529.17493	6.68218E-09