Wavenumber	NESR 1.00 cm-1
17.97255	1.26466E-08
18.14537	1.24456E-08
18.31818	1.22505E-08
18.49099	1.20615E-08
18.66381	1.18789E-08
18.83662	1.17026E-08
19.00943	1.15327E-08
19.18225	1.13694E-08
19.35506	1.12124E-08
19.52787	1.10620E-08
19.70068	1.09179E-08
19.87350	1.07801E-08
20.04631	1.06485E-08
20.21912	1.05229E-08
20.39194	1.04034E-08
20.56475	1.02896E-08
20.73756	1.01816E-08
20.91038	1.00791E-08
21.08319	9.98210E-09
21.25600	9.89030E-09
21.42881	9.80357E-09
21.60163	9.72188E-09
21.77444	9.64497E-09
21.94725	9.57276E-09
22.12007	9.50507E-09
22.29288	9.44175E-09
22.46569	9.38263E-09
22.63851	9.32757E-09
22.81132	9.27642E-09
22.98413	9.22911E-09
23.15695	9.18548E-09
23.32976	9.14533E-09
23.50257	9.10854E-09
23.67538	9.07504E-09
23.84820	9.04457E-09
24.02101	9.01710E-09
24.19382	8.99250E-09
24.36664	8.97055E-09
24.53945	8.95123E-09
24.71226	8.93435E-09
24.88508	8.91973E-09
25.05789	8.90734E-09
25.23070	8.89700E-09
25.40351	8.88855E-09
25.57633	8.88193E-09
25.74914	8.87700E-09
25.92195	8.87363E-09
26.09477	8.87170E-09
26.26758	8.87105E-09
26.44039	8.87161E-09
26.61321	8.87322E-09
26.78602	8.87577E-09
26.95883	8.87917E-09
27.13164	8.88325E-09
27.30446	8.88794E-09
27.47727	8.89307E-09
27.65008	8.89861E-09
27.82290	8.90439E-09
27.99571	8.91030E-09
28.16852	8.91627E-09
28.34134	8.92221E-09
28.51415	8.92798E-09
28.68696	8.93347E-09
28.85977	8.93871E-09
29.03259	8.94349E-09
29.20540	8.94780E-09
29.37821	8.95156E-09
29.55103	8.95469E-09
29.72384	8.95711E-09
29.89665	8.95882E-09
30.06947	8.95970E-09
30.24228	8.95977E-09
30.41509	8.95892E-09
30.58790	8.95720E-09
30.76072	8.95454E-09
30.93353	8.95096E-09
31.10634	8.94636E-09
31.27916	8.94082E-09
31.45197	8.93430E-09
31.62478	8.92680E-09
31.79760	8.91833E-09
31.97041	8.90891E-09
32.14322	8.89861E-09
32.31604	8.88736E-09
32.48885	8.87531E-09
32.66166	8.86236E-09
32.83447	8.84863E-09
33.00729	8.83416E-09
33.18010	8.81897E-09
33.35291	8.80310E-09
33.52573	8.78663E-09
33.69854	8.76957E-09
33.87135	8.75207E-09
34.04417	8.73407E-09
34.21698	8.71564E-09
34.38979	8.69693E-09
34.56260	8.67791E-09
34.73542	8.65867E-09
34.90823	8.63922E-09
35.08104	8.61970E-09
35.25386	8.60012E-09
35.42667	8.58054E-09
35.59948	8.56099E-09
35.77230	8.54155E-09
35.94511	8.52225E-09
36.11792	8.50318E-09
36.29073	8.48436E-09
36.46355	8.46583E-09
36.63636	8.44767E-09
36.80917	8.42984E-09
36.98199	8.41248E-09
37.15480	8.39553E-09
37.32761	8.37906E-09
37.50043	8.36313E-09
37.67324	8.34775E-09
37.84605	8.33293E-09
38.01886	8.31870E-09
38.19168	8.30510E-09
38.36449	8.29213E-09
38.53730	8.27979E-09
38.71012	8.26812E-09
38.88293	8.25712E-09
39.05574	8.24679E-09
39.22856	8.23715E-09
39.40137	8.22819E-09
39.57418	8.21991E-09
39.74699	8.21230E-09
39.91981	8.20537E-09
40.09262	8.19915E-09
40.26543	8.19354E-09
40.43825	8.18858E-09
40.61106	8.18427E-09
40.78387	8.18062E-09
40.95669	8.17751E-09
41.12950	8.17502E-09
41.30231	8.17310E-09
41.47513	8.17174E-09
41.64794	8.17089E-09
41.82075	8.17053E-09
41.99356	8.17063E-09
42.16638	8.17120E-09
42.33919	8.17217E-09
42.51200	8.17352E-09
42.68482	8.17526E-09
42.85763	8.17730E-09
43.03044	8.17962E-09
43.20326	8.18226E-09
43.37607	8.18510E-09
43.54888	8.18814E-09
43.72169	8.19135E-09
43.89451	8.19467E-09
44.06732	8.19814E-09
44.24013	8.20165E-09
44.41295	8.20526E-09
44.58576	8.20887E-09
44.75857	8.21245E-09
44.93139	8.21602E-09
45.10420	8.21951E-09
45.27701	8.22292E-09
45.44982	8.22617E-09
45.62264	8.22936E-09
45.79545	8.23232E-09
45.96826	8.23517E-09
46.14108	8.23780E-09
46.31389	8.24021E-09
46.48670	8.24235E-09
46.65952	8.24433E-09
46.83233	8.24598E-09
47.00514	8.24742E-09
47.17795	8.24854E-09
47.35077	8.24944E-09
47.52358	8.25002E-09
47.69639	8.25034E-09
47.86921	8.25033E-09
48.04202	8.25010E-09
48.21483	8.24954E-09
48.38765	8.24866E-09
48.56046	8.24757E-09
48.73327	8.24621E-09
48.90608	8.24461E-09
49.07890	8.24271E-09
49.25171	8.24061E-09
49.42452	8.23826E-09
49.59734	8.23573E-09
49.77015	8.23298E-09
49.94296	8.23005E-09
50.11578	8.22695E-09
50.28859	8.22369E-09
50.46140	8.22034E-09
50.63422	8.21681E-09
50.80703	8.21321E-09
50.97984	8.20955E-09
51.15265	8.20580E-09
51.32547	8.20203E-09
51.49828	8.19825E-09
51.67109	8.19443E-09
51.84391	8.19067E-09
52.01672	8.18688E-09
52.18953	8.18321E-09
52.36235	8.17956E-09
52.53516	8.17602E-09
52.70797	8.17258E-09
52.88078	8.16921E-09
53.05360	8.16603E-09
53.22641	8.16298E-09
53.39922	8.16006E-09
53.57204	8.15736E-09
53.74485	8.15479E-09
53.91766	8.15246E-09
54.09048	8.15030E-09
54.26329	8.14838E-09
54.43610	8.14663E-09
54.60891	8.14516E-09
54.78173	8.14392E-09
54.95454	8.14287E-09
55.12735	8.14209E-09
55.30017	8.14154E-09
55.47298	8.14122E-09
55.64579	8.14120E-09
55.81861	8.14135E-09
55.99142	8.14179E-09
56.16423	8.14241E-09
56.33704	8.14332E-09
56.50986	8.14440E-09
56.68267	8.14573E-09
56.85548	8.14726E-09
57.02830	8.14901E-09
57.20111	8.15090E-09
57.37392	8.15303E-09
57.54674	8.15530E-09
57.71955	8.15776E-09
57.89236	8.16032E-09
58.06517	8.16306E-09
58.23799	8.16588E-09
58.41080	8.16881E-09
58.58361	8.17188E-09
58.75643	8.17499E-09
58.92924	8.17819E-09
59.10205	8.18139E-09
59.27487	8.18467E-09
59.44768	8.18795E-09
59.62049	8.19126E-09
59.79331	8.19454E-09
59.96612	8.19779E-09
60.13893	8.20103E-09
60.31174	8.20417E-09
60.48456	8.20729E-09
60.65737	8.21029E-09
60.83018	8.21323E-09
61.00300	8.21603E-09
61.17581	8.21874E-09
61.34862	8.22135E-09
61.52144	8.22379E-09
61.69425	8.22606E-09
61.86706	8.22821E-09
62.03987	8.23019E-09
62.21269	8.23200E-09
62.38550	8.23364E-09
62.55831	8.23511E-09
62.73113	8.23640E-09
62.90394	8.23747E-09
63.07675	8.23837E-09
63.24957	8.23910E-09
63.42238	8.23965E-09
63.59519	8.24003E-09
63.76800	8.24018E-09
63.94082	8.24014E-09
64.11363	8.23994E-09
64.28644	8.23959E-09
64.45926	8.23902E-09
64.63207	8.23832E-09
64.80488	8.23745E-09
64.97770	8.23641E-09
65.15051	8.23529E-09
65.32332	8.23400E-09
65.49613	8.23256E-09
65.66895	8.23106E-09
65.84176	8.22944E-09
66.01457	8.22768E-09
66.18739	8.22591E-09
66.36020	8.22399E-09
66.53301	8.22201E-09
66.70583	8.22001E-09
66.87864	8.21799E-09
67.05145	8.21589E-09
67.22426	8.21375E-09
67.39708	8.21166E-09
67.56989	8.20955E-09
67.74270	8.20741E-09
67.91552	8.20530E-09
68.08833	8.20325E-09
68.26114	8.20118E-09
68.43396	8.19921E-09
68.60677	8.19724E-09
68.77958	8.19537E-09
68.95240	8.19352E-09
69.12521	8.19174E-09
69.29802	8.19010E-09
69.47083	8.18849E-09
69.64365	8.18701E-09
69.81646	8.18560E-09
69.98927	8.18434E-09
70.16209	8.18310E-09
70.33490	8.18204E-09
70.50771	8.18101E-09
70.68053	8.18016E-09
70.85334	8.17939E-09
71.02615	8.17869E-09
71.19896	8.17813E-09
71.37178	8.17769E-09
71.54459	8.17728E-09
71.71740	8.17705E-09
71.89022	8.17685E-09
72.06303	8.17678E-09
72.23584	8.17684E-09
72.40866	8.17692E-09
72.58147	8.17708E-09
72.75428	8.17731E-09
72.92709	8.17760E-09
73.09991	8.17792E-09
73.27272	8.17832E-09
73.44553	8.17874E-09
73.61835	8.17923E-09
73.79116	8.17968E-09
73.96397	8.18016E-09
74.13679	8.18068E-09
74.30960	8.18120E-09
74.48241	8.18172E-09
74.65522	8.18219E-09
74.82804	8.18263E-09
75.00085	8.18304E-09
75.17366	8.18341E-09
75.34648	8.18369E-09
75.51929	8.18395E-09
75.69210	8.18412E-09
75.86492	8.18419E-09
76.03773	8.18417E-09
76.21054	8.18408E-09
76.38335	8.18389E-09
76.55617	8.18357E-09
76.72898	8.18315E-09
76.90179	8.18259E-09
77.07461	8.18190E-09
77.24742	8.18112E-09
77.42023	8.18018E-09
77.59305	8.17912E-09
77.76586	8.17791E-09
77.93867	8.17656E-09
78.11149	8.17508E-09
78.28430	8.17343E-09
78.45711	8.17165E-09
78.62992	8.16973E-09
78.80274	8.16765E-09
78.97555	8.16543E-09
79.14836	8.16313E-09
79.32118	8.16063E-09
79.49399	8.15804E-09
79.66680	8.15529E-09
79.83962	8.15240E-09
80.01243	8.14940E-09
80.18524	8.14629E-09
80.35805	8.14308E-09
80.53087	8.13978E-09
80.70368	8.13634E-09
80.87649	8.13284E-09
81.04931	8.12926E-09
81.22212	8.12560E-09
81.39493	8.12184E-09
81.56775	8.11804E-09
81.74056	8.11415E-09
81.91337	8.11022E-09
82.08618	8.10624E-09
82.25900	8.10222E-09
82.43181	8.09822E-09
82.60462	8.09413E-09
82.77744	8.09004E-09
82.95025	8.08598E-09
83.12306	8.08189E-09
83.29588	8.07781E-09
83.46869	8.07374E-09
83.64150	8.06970E-09
83.81431	8.06565E-09
83.98713	8.06163E-09
84.15994	8.05767E-09
84.33275	8.05371E-09
84.50557	8.04978E-09
84.67838	8.04590E-09
84.85119	8.04209E-09
85.02401	8.03829E-09
85.19682	8.03450E-09
85.36963	8.03084E-09
85.54244	8.02718E-09
85.71526	8.02358E-09
85.88807	8.02000E-09
86.06088	8.01648E-09
86.23370	8.01301E-09
86.40651	8.00961E-09
86.57932	8.00623E-09
86.75214	8.00290E-09
86.92495	7.99957E-09
87.09776	7.99632E-09
87.27058	7.99314E-09
87.44339	7.98990E-09
87.61620	7.98673E-09
87.78901	7.98358E-09
87.96183	7.98043E-09
88.13464	7.97735E-09
88.30745	7.97421E-09
88.48027	7.97110E-09
88.65308	7.96793E-09
88.82589	7.96483E-09
88.99871	7.96163E-09
89.17152	7.95845E-09
89.34433	7.95525E-09
89.51714	7.95198E-09
89.68996	7.94865E-09
89.86277	7.94535E-09
90.03558	7.94195E-09
90.20840	7.93845E-09
90.38121	7.93492E-09
90.55402	7.93133E-09
90.72684	7.92765E-09
90.89965	7.92389E-09
91.07246	7.92002E-09
91.24527	7.91612E-09
91.41809	7.91206E-09
91.59090	7.90791E-09
91.76371	7.90367E-09
91.93653	7.89934E-09
92.10934	7.89486E-09
92.28215	7.89029E-09
92.45497	7.88562E-09
92.62778	7.88081E-09
92.80059	7.87591E-09
92.97340	7.87087E-09
93.14622	7.86573E-09
93.31903	7.86046E-09
93.49184	7.85509E-09
93.66466	7.84959E-09
93.83747	7.84397E-09
94.01028	7.83829E-09
94.18310	7.83250E-09
94.35591	7.82658E-09
94.52872	7.82057E-09
94.70153	7.81447E-09
94.87435	7.80828E-09
95.04716	7.80199E-09
95.21997	7.79561E-09
95.39279	7.78921E-09
95.56560	7.78271E-09
95.73841	7.77619E-09
95.91123	7.76957E-09
96.08404	7.76291E-09
96.25685	7.75621E-09
96.42967	7.74947E-09
96.60248	7.74274E-09
96.77529	7.73599E-09
96.94810	7.72920E-09
97.12092	7.72242E-09
97.29373	7.71565E-09
97.46654	7.70890E-09
97.63936	7.70215E-09
97.81217	7.69547E-09
97.98498	7.68874E-09
98.15780	7.68214E-09
98.33061	7.67556E-09
98.50342	7.66903E-09
98.67623	7.66252E-09
98.84905	7.65610E-09
99.02186	7.64980E-09
99.19467	7.64352E-09
99.36749	7.63734E-09
99.54030	7.63122E-09
99.71311	7.62521E-09
99.88593	7.61930E-09
100.05874	7.61349E-09
100.23155	7.60773E-09
100.40436	7.60208E-09
100.57718	7.59658E-09
100.74999	7.59113E-09
100.92280	7.58580E-09
101.09562	7.58061E-09
101.26843	7.57547E-09
101.44124	7.57045E-09
101.61406	7.56557E-09
101.78687	7.56081E-09
101.95968	7.55607E-09
102.13249	7.55150E-09
102.30531	7.54698E-09
102.47812	7.54260E-09
102.65093	7.53829E-09
102.82375	7.53407E-09
102.99656	7.52994E-09
103.16937	7.52587E-09
103.34219	7.52190E-09
103.51500	7.51802E-09
103.68781	7.51416E-09
103.86062	7.51038E-09
104.03344	7.50666E-09
104.20625	7.50304E-09
104.37906	7.49944E-09
104.55188	7.49582E-09
104.72469	7.49231E-09
104.89750	7.48881E-09
105.07032	7.48530E-09
105.24313	7.48184E-09
105.41594	7.47833E-09
105.58876	7.47488E-09
105.76157	7.47143E-09
105.93438	7.46794E-09
106.10719	7.46446E-09
106.28001	7.46097E-09
106.45282	7.45744E-09
106.62563	7.45388E-09
106.79845	7.45028E-09
106.97126	7.44667E-09
107.14407	7.44298E-09
107.31689	7.43928E-09
107.48970	7.43551E-09
107.66251	7.43164E-09
107.83532	7.42776E-09
108.00814	7.42381E-09
108.18095	7.41978E-09
108.35376	7.41568E-09
108.52658	7.41156E-09
108.69939	7.40731E-09
108.87220	7.40302E-09
109.04502	7.39868E-09
109.21783	7.39426E-09
109.39064	7.38975E-09
109.56345	7.38517E-09
109.73627	7.38053E-09
109.90908	7.37582E-09
110.08189	7.37107E-09
110.25471	7.36623E-09
110.42752	7.36130E-09
110.60033	7.35633E-09
110.77315	7.35133E-09
110.94596	7.34627E-09
111.11877	7.34113E-09
111.29158	7.33599E-09
111.46440	7.33079E-09
111.63721	7.32552E-09
111.81002	7.32028E-09
111.98284	7.31500E-09
112.15565	7.30966E-09
112.32846	7.30434E-09
112.50128	7.29903E-09
112.67409	7.29372E-09
112.84690	7.28838E-09
113.01972	7.28309E-09
113.19253	7.27781E-09
113.36534	7.27255E-09
113.53815	7.26728E-09
113.71097	7.26211E-09
113.88378	7.25696E-09
114.05659	7.25185E-09
114.22941	7.24680E-09
114.40222	7.24182E-09
114.57503	7.23691E-09
114.74785	7.23206E-09
114.92066	7.22726E-09
115.09347	7.22256E-09
115.26628	7.21794E-09
115.43910	7.21342E-09
115.61191	7.20900E-09
115.78472	7.20466E-09
115.95754	7.20043E-09
116.13035	7.19632E-09
116.30316	7.19230E-09
116.47598	7.18837E-09
116.64879	7.18458E-09
116.82160	7.18088E-09
116.99441	7.17732E-09
117.16723	7.17389E-09
117.34004	7.17061E-09
117.51285	7.16741E-09
117.68567	7.16435E-09
117.85848	7.16141E-09
118.03129	7.15861E-09
118.20411	7.15596E-09
118.37692	7.15343E-09
118.54973	7.15102E-09
118.72254	7.14870E-09
118.89536	7.14656E-09
119.06817	7.14453E-09
119.24098	7.14265E-09
119.41380	7.14087E-09
119.58661	7.13921E-09
119.75942	7.13770E-09
119.93224	7.13629E-09
120.10505	7.13504E-09
120.27786	7.13388E-09
120.45067	7.13284E-09
120.62349	7.13190E-09
120.79630	7.13110E-09
120.96911	7.13042E-09
121.14193	7.12983E-09
121.31474	7.12938E-09
121.48755	7.12901E-09
121.66037	7.12873E-09
121.83318	7.12859E-09
122.00599	7.12856E-09
122.17881	7.12859E-09
122.35162	7.12878E-09
122.52443	7.12903E-09
122.69724	7.12938E-09
122.87006	7.12982E-09
123.04287	7.13035E-09
123.21568	7.13097E-09
123.38850	7.13173E-09
123.56131	7.13253E-09
123.73412	7.13342E-09
123.90694	7.13445E-09
124.07975	7.13552E-09
124.25256	7.13674E-09
124.42537	7.13799E-09
124.59819	7.13934E-09
124.77100	7.14082E-09
124.94381	7.14236E-09
125.11663	7.14403E-09
125.28944	7.14579E-09
125.46225	7.14765E-09
125.63507	7.14956E-09
125.80788	7.15164E-09
125.98069	7.15378E-09
126.15350	7.15601E-09
126.32632	7.15838E-09
126.49913	7.16085E-09
126.67194	7.16345E-09
126.84476	7.16615E-09
127.01757	7.16896E-09
127.19038	7.17190E-09
127.36320	7.17498E-09
127.53601	7.17816E-09
127.70882	7.18148E-09
127.88163	7.18490E-09
128.05445	7.18851E-09
128.22726	7.19221E-09
128.40007	7.19604E-09
128.57289	7.20000E-09
128.74570	7.20414E-09
128.91851	7.20843E-09
129.09133	7.21286E-09
129.26414	7.21744E-09
129.43695	7.22216E-09
129.60976	7.22703E-09
129.78258	7.23203E-09
129.95539	7.23719E-09
130.12820	7.24251E-09
130.30102	7.24800E-09
130.47383	7.25360E-09
130.64664	7.25941E-09
130.81946	7.26536E-09
130.99227	7.27142E-09
131.16508	7.27768E-09
131.33790	7.28410E-09
131.51071	7.29068E-09
131.68352	7.29738E-09
131.85633	7.30428E-09
132.02915	7.31130E-09
132.20196	7.31846E-09
132.37477	7.32579E-09
132.54759	7.33325E-09
132.72040	7.34087E-09
132.89321	7.34860E-09
133.06603	7.35644E-09
133.23884	7.36441E-09
133.41165	7.37256E-09
133.58446	7.38078E-09
133.75728	7.38912E-09
133.93009	7.39757E-09
134.10290	7.40616E-09
134.27572	7.41481E-09
134.44853	7.42355E-09
134.62134	7.43236E-09
134.79416	7.44130E-09
134.96697	7.45027E-09
135.13978	7.45933E-09
135.31259	7.46846E-09
135.48541	7.47762E-09
135.65822	7.48684E-09
135.83103	7.49614E-09
136.00385	7.50542E-09
136.17666	7.51478E-09
136.34947	7.52412E-09
136.52229	7.53350E-09
136.69510	7.54284E-09
136.86791	7.55225E-09
137.04072	7.56162E-09
137.21354	7.57099E-09
137.38635	7.58040E-09
137.55916	7.58974E-09
137.73198	7.59908E-09
137.90479	7.60841E-09
138.07760	7.61768E-09
138.25042	7.62693E-09
138.42323	7.63616E-09
138.59604	7.64532E-09
138.76885	7.65442E-09
138.94167	7.66350E-09
139.11448	7.67251E-09
139.28729	7.68152E-09
139.46011	7.69045E-09
139.63292	7.69931E-09
139.80573	7.70810E-09
139.97855	7.71688E-09
140.15136	7.72558E-09
140.32417	7.73421E-09
140.49699	7.74280E-09
140.66980	7.75133E-09
140.84261	7.75979E-09
141.01542	7.76824E-09
141.18824	7.77666E-09
141.36105	7.78501E-09
141.53386	7.79338E-09
141.70668	7.80169E-09
141.87949	7.80991E-09
142.05230	7.81818E-09
142.22512	7.82647E-09
142.39793	7.83468E-09
142.57074	7.84292E-09
142.74355	7.85114E-09
142.91637	7.85940E-09
143.08918	7.86762E-09
143.26199	7.87594E-09
143.43481	7.88428E-09
143.60762	7.89260E-09
143.78043	7.90102E-09
143.95325	7.90945E-09
144.12606	7.91798E-09
144.29887	7.92659E-09
144.47168	7.93522E-09
144.64450	7.94395E-09
144.81731	7.95281E-09
144.99012	7.96171E-09
145.16294	7.97075E-09
145.33575	7.97986E-09
145.50856	7.98913E-09
145.68138	7.99848E-09
145.85419	8.00798E-09
146.02700	8.01757E-09
146.19981	8.02733E-09
146.37263	8.03721E-09
146.54544	8.04729E-09
146.71825	8.05746E-09
146.89107	8.06784E-09
147.06388	8.07838E-09
147.23669	8.08907E-09
147.40951	8.09991E-09
147.58232	8.11089E-09
147.75513	8.12210E-09
147.92794	8.13346E-09
148.10076	8.14498E-09
148.27357	8.15665E-09
148.44638	8.16854E-09
148.61920	8.18053E-09
148.79201	8.19275E-09
148.96482	8.20513E-09
149.13764	8.21768E-09
149.31045	8.23032E-09
149.48326	8.24321E-09
149.65608	8.25626E-09
149.82889	8.26942E-09
150.00170	8.28267E-09
150.17451	8.29617E-09
150.34733	8.30972E-09
150.52014	8.32345E-09
150.69295	8.33735E-09
150.86577	8.35130E-09
151.03858	8.36538E-09
151.21139	8.37957E-09
151.38421	8.39387E-09
151.55702	8.40823E-09
151.72983	8.42271E-09
151.90264	8.43731E-09
152.07546	8.45193E-09
152.24827	8.46665E-09
152.42108	8.48136E-09
152.59390	8.49615E-09
152.76671	8.51099E-09
152.93952	8.52588E-09
153.11234	8.54077E-09
153.28515	8.55572E-09
153.45796	8.57065E-09
153.63077	8.58561E-09
153.80359	8.60057E-09
153.97640	8.61551E-09
154.14921	8.63045E-09
154.32203	8.64536E-09
154.49484	8.66022E-09
154.66765	8.67506E-09
154.84047	8.68991E-09
155.01328	8.70474E-09
155.18609	8.71951E-09
155.35890	8.73425E-09
155.53172	8.74891E-09
155.70453	8.76355E-09
155.87734	8.77812E-09
156.05016	8.79261E-09
156.22297	8.80716E-09
156.39578	8.82155E-09
156.56860	8.83600E-09
156.74141	8.85038E-09
156.91422	8.86467E-09
157.08703	8.87893E-09
157.25985	8.89317E-09
157.43266	8.90739E-09
157.60547	8.92159E-09
157.77829	8.93577E-09
157.95110	8.94988E-09
158.12391	8.96402E-09
158.29673	8.97821E-09
158.46954	8.99232E-09
158.64235	9.00646E-09
158.81517	9.02066E-09
158.98798	9.03483E-09
159.16079	9.04903E-09
159.33360	9.06328E-09
159.50642	9.07757E-09
159.67923	9.09192E-09
159.85204	9.10631E-09
160.02486	9.12081E-09
160.19767	9.13542E-09
160.37048	9.15001E-09
160.54330	9.16480E-09
160.71611	9.17963E-09
160.88892	9.19464E-09
161.06173	9.20970E-09
161.23455	9.22496E-09
161.40736	9.24034E-09
161.58017	9.25585E-09
161.75299	9.27148E-09
161.92580	9.28729E-09
162.09861	9.30324E-09
162.27143	9.31939E-09
162.44424	9.33575E-09
162.61705	9.35223E-09
162.78986	9.36892E-09
162.96268	9.38574E-09
163.13549	9.40284E-09
163.30830	9.42006E-09
163.48112	9.43741E-09
163.65393	9.45505E-09
163.82674	9.47283E-09
163.99956	9.49083E-09
164.17237	9.50896E-09
164.34518	9.52731E-09
164.51799	9.54580E-09
164.69081	9.56452E-09
164.86362	9.58341E-09
165.03643	9.60241E-09
165.20925	9.62163E-09
165.38206	9.64091E-09
165.55487	9.66044E-09
165.72769	9.68004E-09
165.90050	9.69978E-09
166.07331	9.71957E-09
166.24612	9.73955E-09
166.41894	9.75958E-09
166.59175	9.77967E-09
166.76456	9.79985E-09
166.93738	9.82011E-09
167.11019	9.84043E-09
167.28300	9.86075E-09
167.45582	9.88112E-09
167.62863	9.90140E-09
167.80144	9.92175E-09
167.97426	9.94201E-09
168.14707	9.96224E-09
168.31988	9.98239E-09
168.49269	1.00025E-08
168.66551	1.00225E-08
168.83832	1.00424E-08
169.01113	1.00622E-08
169.18395	1.00819E-08
169.35676	1.01014E-08
169.52957	1.01207E-08
169.70239	1.01399E-08
169.87520	1.01588E-08
170.04801	1.01776E-08
170.22082	1.01961E-08
170.39364	1.02145E-08
170.56645	1.02326E-08
170.73926	1.02505E-08
170.91208	1.02680E-08
171.08489	1.02853E-08
171.25770	1.03024E-08
171.43052	1.03191E-08
171.60333	1.03356E-08
171.77614	1.03518E-08
171.94895	1.03677E-08
172.12177	1.03833E-08
172.29458	1.03986E-08
172.46739	1.04136E-08
172.64021	1.04283E-08
172.81302	1.04427E-08
172.98583	1.04568E-08
173.15865	1.04706E-08
173.33146	1.04842E-08
173.50427	1.04975E-08
173.67708	1.05105E-08
173.84990	1.05233E-08
174.02271	1.05357E-08
174.19552	1.05481E-08
174.36834	1.05601E-08
174.54115	1.05719E-08
174.71396	1.05835E-08
174.88678	1.05949E-08
175.05959	1.06062E-08
175.23240	1.06172E-08
175.40521	1.06282E-08
175.57803	1.06391E-08
175.75084	1.06497E-08
175.92365	1.06603E-08
176.09647	1.06708E-08
176.26928	1.06813E-08
176.44209	1.06917E-08
176.61491	1.07021E-08
176.78772	1.07125E-08
176.96053	1.07228E-08
177.13335	1.07332E-08
177.30616	1.07437E-08
177.47897	1.07542E-08
177.65178	1.07648E-08
177.82460	1.07754E-08
177.99741	1.07862E-08
178.17022	1.07971E-08
178.34304	1.08081E-08
178.51585	1.08193E-08
178.68866	1.08307E-08
178.86148	1.08423E-08
179.03429	1.08540E-08
179.20710	1.08659E-08
179.37991	1.08781E-08
179.55273	1.08904E-08
179.72554	1.09030E-08
179.89835	1.09158E-08
180.07117	1.09290E-08
180.24398	1.09422E-08
180.41679	1.09558E-08
180.58961	1.09697E-08
180.76242	1.09838E-08
180.93523	1.09982E-08
181.10804	1.10127E-08
181.28086	1.10276E-08
181.45367	1.10427E-08
181.62648	1.10580E-08
181.79930	1.10737E-08
181.97211	1.10895E-08
182.14492	1.11055E-08
182.31774	1.11218E-08
182.49055	1.11383E-08
182.66336	1.11550E-08
182.83617	1.11719E-08
183.00899	1.11889E-08
183.18180	1.12062E-08
183.35461	1.12235E-08
183.52743	1.12411E-08
183.70024	1.12586E-08
183.87305	1.12764E-08
184.04587	1.12942E-08
184.21868	1.13120E-08
184.39149	1.13300E-08
184.56430	1.13479E-08
184.73712	1.13658E-08
184.90993	1.13838E-08
185.08274	1.14016E-08
185.25556	1.14194E-08
185.42837	1.14371E-08
185.60118	1.14548E-08
185.77400	1.14723E-08
185.94681	1.14897E-08
186.11962	1.15069E-08
186.29244	1.15240E-08
186.46525	1.15408E-08
186.63806	1.15574E-08
186.81087	1.15737E-08
186.98369	1.15898E-08
187.15650	1.16056E-08
187.32931	1.16211E-08
187.50213	1.16362E-08
187.67494	1.16511E-08
187.84775	1.16655E-08
188.02057	1.16797E-08
188.19338	1.16934E-08
188.36619	1.17067E-08
188.53900	1.17196E-08
188.71182	1.17321E-08
188.88463	1.17441E-08
189.05744	1.17557E-08
189.23026	1.17669E-08
189.40307	1.17777E-08
189.57588	1.17879E-08
189.74870	1.17978E-08
189.92151	1.18071E-08
190.09432	1.18160E-08
190.26713	1.18245E-08
190.43995	1.18324E-08
190.61276	1.18399E-08
190.78557	1.18470E-08
190.95839	1.18536E-08
191.13120	1.18599E-08
191.30401	1.18656E-08
191.47683	1.18710E-08
191.64964	1.18759E-08
191.82245	1.18805E-08
191.99526	1.18847E-08
192.16808	1.18885E-08
192.34089	1.18919E-08
192.51370	1.18950E-08
192.68652	1.18977E-08
192.85933	1.19002E-08
193.03214	1.19023E-08
193.20496	1.19042E-08
193.37777	1.19058E-08
193.55058	1.19072E-08
193.72339	1.19083E-08
193.89621	1.19092E-08
194.06902	1.19100E-08
194.24183	1.19105E-08
194.41465	1.19109E-08
194.58746	1.19112E-08
194.76027	1.19113E-08
194.93309	1.19114E-08
195.10590	1.19113E-08
195.27871	1.19112E-08
195.45153	1.19110E-08
195.62434	1.19108E-08
195.79715	1.19106E-08
195.96996	1.19103E-08
196.14278	1.19101E-08
196.31559	1.19099E-08
196.48840	1.19097E-08
196.66122	1.19096E-08
196.83403	1.19095E-08
197.00684	1.19095E-08
197.17966	1.19096E-08
197.35247	1.19098E-08
197.52528	1.19101E-08
197.69809	1.19105E-08
197.87091	1.19109E-08
198.04372	1.19116E-08
198.21653	1.19123E-08
198.38935	1.19132E-08
198.56216	1.19142E-08
198.73497	1.19153E-08
198.90779	1.19166E-08
199.08060	1.19180E-08
199.25341	1.19196E-08
199.42622	1.19213E-08
199.59904	1.19231E-08
199.77185	1.19251E-08
199.94466	1.19272E-08
200.11748	1.19294E-08
200.29029	1.19318E-08
200.46310	1.19343E-08
200.63592	1.19369E-08
200.80873	1.19396E-08
200.98154	1.19425E-08
201.15435	1.19454E-08
201.32717	1.19485E-08
201.49998	1.19517E-08
201.67279	1.19549E-08
201.84561	1.19582E-08
202.01842	1.19616E-08
202.19123	1.19651E-08
202.36405	1.19686E-08
202.53686	1.19722E-08
202.70967	1.19759E-08
202.88248	1.19796E-08
203.05530	1.19833E-08
203.22811	1.19870E-08
203.40092	1.19908E-08
203.57374	1.19946E-08
203.74655	1.19984E-08
203.91936	1.20022E-08
204.09218	1.20060E-08
204.26499	1.20098E-08
204.43780	1.20135E-08
204.61062	1.20173E-08
204.78343	1.20210E-08
204.95624	1.20247E-08
205.12905	1.20284E-08
205.30187	1.20320E-08
205.47468	1.20356E-08
205.64749	1.20392E-08
205.82031	1.20427E-08
205.99312	1.20461E-08
206.16593	1.20495E-08
206.33875	1.20529E-08
206.51156	1.20562E-08
206.68437	1.20594E-08
206.85718	1.20626E-08
207.03000	1.20658E-08
207.20281	1.20689E-08
207.37562	1.20720E-08
207.54844	1.20750E-08
207.72125	1.20780E-08
207.89406	1.20809E-08
208.06688	1.20838E-08
208.23969	1.20867E-08
208.41250	1.20896E-08
208.58531	1.20924E-08
208.75813	1.20951E-08
208.93094	1.20979E-08
209.10375	1.21007E-08
209.27657	1.21034E-08
209.44938	1.21061E-08
209.62219	1.21089E-08
209.79501	1.21116E-08
209.96782	1.21143E-08
210.14063	1.21171E-08
210.31344	1.21198E-08
210.48626	1.21226E-08
210.65907	1.21253E-08
210.83188	1.21281E-08
211.00470	1.21310E-08
211.17751	1.21338E-08
211.35032	1.21367E-08
211.52314	1.21396E-08
211.69595	1.21425E-08
211.86876	1.21455E-08
212.04157	1.21485E-08
212.21439	1.21516E-08
212.38720	1.21547E-08
212.56001	1.21579E-08
212.73283	1.21611E-08
212.90564	1.21643E-08
213.07845	1.21676E-08
213.25127	1.21709E-08
213.42408	1.21743E-08
213.59689	1.21777E-08
213.76971	1.21811E-08
213.94252	1.21846E-08
214.11533	1.21881E-08
214.28814	1.21917E-08
214.46096	1.21954E-08
214.63377	1.21991E-08
214.80658	1.22027E-08
214.97940	1.22065E-08
215.15221	1.22102E-08
215.32502	1.22140E-08
215.49784	1.22178E-08
215.67065	1.22217E-08
215.84346	1.22255E-08
216.01627	1.22294E-08
216.18909	1.22333E-08
216.36190	1.22372E-08
216.53471	1.22411E-08
216.70753	1.22450E-08
216.88034	1.22489E-08
217.05315	1.22528E-08
217.22597	1.22567E-08
217.39878	1.22606E-08
217.57159	1.22644E-08
217.74440	1.22683E-08
217.91722	1.22722E-08
218.09003	1.22760E-08
218.26284	1.22798E-08
218.43566	1.22836E-08
218.60847	1.22873E-08
218.78128	1.22911E-08
218.95410	1.22948E-08
219.12691	1.22985E-08
219.29972	1.23022E-08
219.47253	1.23059E-08
219.64535	1.23095E-08
219.81816	1.23130E-08
219.99097	1.23166E-08
220.16379	1.23202E-08
220.33660	1.23237E-08
220.50941	1.23272E-08
220.68223	1.23307E-08
220.85504	1.23342E-08
221.02785	1.23377E-08
221.20066	1.23412E-08
221.37348	1.23447E-08
221.54629	1.23482E-08
221.71910	1.23518E-08
221.89192	1.23553E-08
222.06473	1.23589E-08
222.23754	1.23625E-08
222.41036	1.23661E-08
222.58317	1.23697E-08
222.75598	1.23734E-08
222.92880	1.23772E-08
223.10161	1.23810E-08
223.27442	1.23849E-08
223.44723	1.23888E-08
223.62005	1.23928E-08
223.79286	1.23969E-08
223.96567	1.24011E-08
224.13849	1.24054E-08
224.31130	1.24097E-08
224.48411	1.24142E-08
224.65693	1.24187E-08
224.82974	1.24234E-08
225.00255	1.24282E-08
225.17536	1.24332E-08
225.34818	1.24382E-08
225.52099	1.24434E-08
225.69380	1.24488E-08
225.86662	1.24543E-08
226.03943	1.24599E-08
226.21224	1.24657E-08
226.38506	1.24717E-08
226.55787	1.24778E-08
226.73068	1.24841E-08
226.90349	1.24905E-08
227.07631	1.24972E-08
227.24912	1.25039E-08
227.42193	1.25109E-08
227.59475	1.25180E-08
227.76756	1.25253E-08
227.94037	1.25328E-08
228.11319	1.25404E-08
228.28600	1.25482E-08
228.45881	1.25562E-08
228.63162	1.25644E-08
228.80444	1.25727E-08
228.97725	1.25812E-08
229.15006	1.25899E-08
229.32288	1.25987E-08
229.49569	1.26077E-08
229.66850	1.26169E-08
229.84132	1.26262E-08
230.01413	1.26357E-08
230.18694	1.26453E-08
230.35975	1.26551E-08
230.53257	1.26650E-08
230.70538	1.26750E-08
230.87819	1.26852E-08
231.05101	1.26955E-08
231.22382	1.27059E-08
231.39663	1.27165E-08
231.56945	1.27272E-08
231.74226	1.27379E-08
231.91507	1.27488E-08
232.08789	1.27598E-08
232.26070	1.27709E-08
232.43351	1.27821E-08
232.60632	1.27933E-08
232.77914	1.28046E-08
232.95195	1.28160E-08
233.12476	1.28275E-08
233.29758	1.28391E-08
233.47039	1.28507E-08
233.64320	1.28623E-08
233.81602	1.28741E-08
233.98883	1.28858E-08
234.16164	1.28977E-08
234.33445	1.29095E-08
234.50727	1.29215E-08
234.68008	1.29334E-08
234.85289	1.29454E-08
235.02571	1.29575E-08
235.19852	1.29695E-08
235.37133	1.29816E-08
235.54415	1.29938E-08
235.71696	1.30060E-08
235.88977	1.30182E-08
236.06258	1.30304E-08
236.23540	1.30427E-08
236.40821	1.30550E-08
236.58102	1.30674E-08
236.75384	1.30798E-08
236.92665	1.30922E-08
237.09946	1.31047E-08
237.27228	1.31173E-08
237.44509	1.31299E-08
237.61790	1.31425E-08
237.79071	1.31552E-08
237.96353	1.31679E-08
238.13634	1.31807E-08
238.30915	1.31936E-08
238.48197	1.32065E-08
238.65478	1.32195E-08
238.82759	1.32325E-08
239.00041	1.32456E-08
239.17322	1.32588E-08
239.34603	1.32721E-08
239.51884	1.32854E-08
239.69166	1.32989E-08
239.86447	1.33124E-08
240.03728	1.33259E-08
240.21010	1.33396E-08
240.38291	1.33533E-08
240.55572	1.33672E-08
240.72854	1.33811E-08
240.90135	1.33951E-08
241.07416	1.34092E-08
241.24698	1.34234E-08
241.41979	1.34377E-08
241.59260	1.34521E-08
241.76541	1.34665E-08
241.93823	1.34810E-08
242.11104	1.34957E-08
242.28385	1.35103E-08
242.45667	1.35251E-08
242.62948	1.35400E-08
242.80229	1.35548E-08
242.97511	1.35698E-08
243.14792	1.35848E-08
243.32073	1.35999E-08
243.49354	1.36150E-08
243.66636	1.36302E-08
243.83917	1.36454E-08
244.01198	1.36606E-08
244.18480	1.36759E-08
244.35761	1.36912E-08
244.53042	1.37066E-08
244.70324	1.37219E-08
244.87605	1.37373E-08
245.04886	1.37527E-08
245.22167	1.37681E-08
245.39449	1.37834E-08
245.56730	1.37987E-08
245.74011	1.38139E-08
245.91293	1.38292E-08
246.08574	1.38444E-08
246.25855	1.38596E-08
246.43137	1.38746E-08
246.60418	1.38897E-08
246.77699	1.39046E-08
246.94980	1.39195E-08
247.12262	1.39343E-08
247.29543	1.39490E-08
247.46824	1.39637E-08
247.64106	1.39782E-08
247.81387	1.39926E-08
247.98668	1.40069E-08
248.15950	1.40211E-08
248.33231	1.40352E-08
248.50512	1.40492E-08
248.67794	1.40630E-08
248.85075	1.40768E-08
249.02356	1.40904E-08
249.19637	1.41039E-08
249.36919	1.41174E-08
249.54200	1.41307E-08
249.71481	1.41439E-08
249.88763	1.41570E-08
250.06044	1.41699E-08
250.23325	1.41828E-08
250.40607	1.41956E-08
250.57888	1.42083E-08
250.75169	1.42209E-08
250.92450	1.42334E-08
251.09732	1.42459E-08
251.27013	1.42583E-08
251.44294	1.42707E-08
251.61576	1.42830E-08
251.78857	1.42953E-08
251.96138	1.43075E-08
252.13420	1.43198E-08
252.30701	1.43320E-08
252.47982	1.43443E-08
252.65263	1.43566E-08
252.82545	1.43690E-08
252.99826	1.43813E-08
253.17107	1.43938E-08
253.34389	1.44063E-08
253.51670	1.44189E-08
253.68951	1.44316E-08
253.86233	1.44444E-08
254.03514	1.44574E-08
254.20795	1.44705E-08
254.38076	1.44837E-08
254.55358	1.44971E-08
254.72639	1.45106E-08
254.89920	1.45244E-08
255.07202	1.45383E-08
255.24483	1.45525E-08
255.41764	1.45669E-08
255.59046	1.45815E-08
255.76327	1.45964E-08
255.93608	1.46116E-08
256.10889	1.46270E-08
256.28171	1.46427E-08
256.45452	1.46586E-08
256.62733	1.46749E-08
256.80015	1.46914E-08
256.97296	1.47082E-08
257.14577	1.47254E-08
257.31859	1.47428E-08
257.49140	1.47606E-08
257.66421	1.47786E-08
257.83703	1.47970E-08
258.00984	1.48158E-08
258.18265	1.48348E-08
258.35546	1.48541E-08
258.52828	1.48737E-08
258.70109	1.48937E-08
258.87390	1.49140E-08
259.04672	1.49345E-08
259.21953	1.49554E-08
259.39234	1.49766E-08
259.56516	1.49981E-08
259.73797	1.50198E-08
259.91078	1.50418E-08
260.08359	1.50641E-08
260.25641	1.50867E-08
260.42922	1.51095E-08
260.60203	1.51325E-08
260.77485	1.51557E-08
260.94766	1.51792E-08
261.12047	1.52028E-08
261.29329	1.52267E-08
261.46610	1.52507E-08
261.63891	1.52749E-08
261.81172	1.52992E-08
261.98454	1.53236E-08
262.15735	1.53482E-08
262.33016	1.53729E-08
262.50298	1.53976E-08
262.67579	1.54225E-08
262.84860	1.54475E-08
263.02142	1.54725E-08
263.19423	1.54975E-08
263.36704	1.55226E-08
263.53985	1.55477E-08
263.71267	1.55727E-08
263.88548	1.55978E-08
264.05829	1.56229E-08
264.23111	1.56479E-08
264.40392	1.56729E-08
264.57673	1.56978E-08
264.74955	1.57227E-08
264.92236	1.57475E-08
265.09517	1.57723E-08
265.26798	1.57970E-08
265.44080	1.58216E-08
265.61361	1.58460E-08
265.78642	1.58705E-08
265.95924	1.58947E-08
266.13205	1.59189E-08
266.30486	1.59431E-08
266.47768	1.59671E-08
266.65049	1.59910E-08
266.82330	1.60148E-08
266.99612	1.60385E-08
267.16893	1.60621E-08
267.34174	1.60856E-08
267.51455	1.61091E-08
267.68737	1.61324E-08
267.86018	1.61556E-08
268.03299	1.61788E-08
268.20581	1.62020E-08
268.37862	1.62251E-08
268.55143	1.62481E-08
268.72425	1.62711E-08
268.89706	1.62941E-08
269.06987	1.63171E-08
269.24268	1.63401E-08
269.41550	1.63631E-08
269.58831	1.63860E-08
269.76112	1.64091E-08
269.93394	1.64321E-08
270.10675	1.64552E-08
270.27956	1.64784E-08
270.45238	1.65017E-08
270.62519	1.65250E-08
270.79800	1.65485E-08
270.97081	1.65720E-08
271.14363	1.65956E-08
271.31644	1.66194E-08
271.48925	1.66433E-08
271.66207	1.66673E-08
271.83488	1.66915E-08
272.00769	1.67159E-08
272.18051	1.67404E-08
272.35332	1.67650E-08
272.52613	1.67899E-08
272.69894	1.68149E-08
272.87176	1.68402E-08
273.04457	1.68656E-08
273.21738	1.68912E-08
273.39020	1.69170E-08
273.56301	1.69430E-08
273.73582	1.69692E-08
273.90864	1.69956E-08
274.08145	1.70221E-08
274.25426	1.70489E-08
274.42707	1.70757E-08
274.59989	1.71028E-08
274.77270	1.71300E-08
274.94551	1.71574E-08
275.11833	1.71850E-08
275.29114	1.72127E-08
275.46395	1.72405E-08
275.63677	1.72684E-08
275.80958	1.72965E-08
275.98239	1.73246E-08
276.15521	1.73528E-08
276.32802	1.73811E-08
276.50083	1.74094E-08
276.67364	1.74378E-08
276.84646	1.74662E-08
277.01927	1.74946E-08
277.19208	1.75229E-08
277.36490	1.75513E-08
277.53771	1.75796E-08
277.71052	1.76078E-08
277.88334	1.76359E-08
278.05615	1.76639E-08
278.22896	1.76919E-08
278.40177	1.77196E-08
278.57459	1.77473E-08
278.74740	1.77747E-08
278.92021	1.78020E-08
279.09303	1.78290E-08
279.26584	1.78559E-08
279.43865	1.78825E-08
279.61147	1.79089E-08
279.78428	1.79349E-08
279.95709	1.79608E-08
280.12990	1.79863E-08
280.30272	1.80115E-08
280.47553	1.80365E-08
280.64834	1.80611E-08
280.82116	1.80854E-08
280.99397	1.81094E-08
281.16678	1.81330E-08
281.33960	1.81564E-08
281.51241	1.81793E-08
281.68522	1.82019E-08
281.85803	1.82242E-08
282.03085	1.82462E-08
282.20366	1.82678E-08
282.37647	1.82890E-08
282.54929	1.83099E-08
282.72210	1.83305E-08
282.89491	1.83508E-08
283.06773	1.83708E-08
283.24054	1.83904E-08
283.41335	1.84098E-08
283.58616	1.84288E-08
283.75898	1.84477E-08
283.93179	1.84662E-08
284.10460	1.84846E-08
284.27742	1.85026E-08
284.45023	1.85206E-08
284.62304	1.85382E-08
284.79586	1.85558E-08
284.96867	1.85731E-08
285.14148	1.85904E-08
285.31430	1.86075E-08
285.48711	1.86245E-08
285.65992	1.86413E-08
285.83273	1.86581E-08
286.00555	1.86749E-08
286.17836	1.86916E-08
286.35117	1.87084E-08
286.52399	1.87250E-08
286.69680	1.87418E-08
286.86961	1.87585E-08
287.04243	1.87753E-08
287.21524	1.87922E-08
287.38805	1.88091E-08
287.56086	1.88262E-08
287.73368	1.88433E-08
287.90649	1.88606E-08
288.07930	1.88781E-08
288.25212	1.88957E-08
288.42493	1.89134E-08
288.59774	1.89312E-08
288.77056	1.89493E-08
288.94337	1.89675E-08
289.11618	1.89859E-08
289.28899	1.90045E-08
289.46181	1.90232E-08
289.63462	1.90421E-08
289.80743	1.90612E-08
289.98025	1.90806E-08
290.15306	1.91001E-08
290.32587	1.91197E-08
290.49869	1.91396E-08
290.67150	1.91596E-08
290.84431	1.91798E-08
291.01712	1.92001E-08
291.18994	1.92205E-08
291.36275	1.92411E-08
291.53556	1.92618E-08
291.70838	1.92826E-08
291.88119	1.93034E-08
292.05400	1.93243E-08
292.22682	1.93453E-08
292.39963	1.93664E-08
292.57244	1.93874E-08
292.74525	1.94085E-08
292.91807	1.94296E-08
293.09088	1.94506E-08
293.26369	1.94716E-08
293.43651	1.94925E-08
293.60932	1.95133E-08
293.78213	1.95341E-08
293.95495	1.95547E-08
294.12776	1.95752E-08
294.30057	1.95955E-08
294.47339	1.96156E-08
294.64620	1.96355E-08
294.81901	1.96552E-08
294.99182	1.96746E-08
295.16464	1.96939E-08
295.33745	1.97128E-08
295.51026	1.97314E-08
295.68308	1.97498E-08
295.85589	1.97679E-08
296.02870	1.97856E-08
296.20152	1.98030E-08
296.37433	1.98200E-08
296.54714	1.98368E-08
296.71995	1.98531E-08
296.89277	1.98691E-08
297.06558	1.98847E-08
297.23839	1.99000E-08
297.41121	1.99149E-08
297.58402	1.99294E-08
297.75683	1.99436E-08
297.92965	1.99574E-08
298.10246	1.99708E-08
298.27527	1.99838E-08
298.44808	1.99966E-08
298.62090	2.00089E-08
298.79371	2.00210E-08
298.96652	2.00327E-08
299.13934	2.00441E-08
299.31215	2.00552E-08
299.48496	2.00661E-08
299.65778	2.00766E-08
299.83059	2.00869E-08
300.00340	2.00970E-08
300.17621	2.01068E-08
300.34903	2.01164E-08
300.52184	2.01258E-08
300.69465	2.01351E-08
300.86747	2.01442E-08
301.04028	2.01531E-08
301.21309	2.01620E-08
301.38591	2.01708E-08
301.55872	2.01795E-08
301.73153	2.01881E-08
301.90434	2.01967E-08
302.07716	2.02053E-08
302.24997	2.02139E-08
302.42278	2.02226E-08
302.59560	2.02312E-08
302.76841	2.02399E-08
302.94122	2.02487E-08
303.11404	2.02576E-08
303.28685	2.02666E-08
303.45966	2.02757E-08
303.63248	2.02849E-08
303.80529	2.02943E-08
303.97810	2.03038E-08
304.15091	2.03135E-08
304.32373	2.03234E-08
304.49654	2.03335E-08
304.66935	2.03437E-08
304.84217	2.03541E-08
305.01498	2.03648E-08
305.18779	2.03756E-08
305.36061	2.03866E-08
305.53342	2.03978E-08
305.70623	2.04092E-08
305.87904	2.04208E-08
306.05186	2.04326E-08
306.22467	2.04447E-08
306.39748	2.04568E-08
306.57030	2.04691E-08
306.74311	2.04817E-08
306.91592	2.04943E-08
307.08874	2.05071E-08
307.26155	2.05201E-08
307.43436	2.05331E-08
307.60717	2.05463E-08
307.77999	2.05595E-08
307.95280	2.05728E-08
308.12561	2.05862E-08
308.29843	2.05996E-08
308.47124	2.06131E-08
308.64405	2.06266E-08
308.81687	2.06401E-08
308.98968	2.06536E-08
309.16249	2.06671E-08
309.33530	2.06805E-08
309.50812	2.06938E-08
309.68093	2.07070E-08
309.85374	2.07202E-08
310.02656	2.07333E-08
310.19937	2.07462E-08
310.37218	2.07590E-08
310.54500	2.07716E-08
310.71781	2.07841E-08
310.89062	2.07964E-08
311.06343	2.08085E-08
311.23625	2.08204E-08
311.40906	2.08321E-08
311.58187	2.08436E-08
311.75469	2.08549E-08
311.92750	2.08659E-08
312.10031	2.08767E-08
312.27313	2.08872E-08
312.44594	2.08975E-08
312.61875	2.09077E-08
312.79157	2.09175E-08
312.96438	2.09271E-08
313.13719	2.09365E-08
313.31000	2.09458E-08
313.48282	2.09548E-08
313.65563	2.09636E-08
313.82844	2.09721E-08
314.00126	2.09805E-08
314.17407	2.09887E-08
314.34688	2.09968E-08
314.51970	2.10047E-08
314.69251	2.10124E-08
314.86532	2.10201E-08
315.03813	2.10277E-08
315.21095	2.10352E-08
315.38376	2.10426E-08
315.55657	2.10500E-08
315.72939	2.10574E-08
315.90220	2.10647E-08
316.07501	2.10721E-08
316.24783	2.10795E-08
316.42064	2.10870E-08
316.59345	2.10946E-08
316.76626	2.11022E-08
316.93908	2.11100E-08
317.11189	2.11179E-08
317.28470	2.11260E-08
317.45752	2.11342E-08
317.63033	2.11427E-08
317.80314	2.11515E-08
317.97596	2.11604E-08
318.14877	2.11696E-08
318.32158	2.11791E-08
318.49439	2.11888E-08
318.66721	2.11989E-08
318.84002	2.12092E-08
319.01283	2.12199E-08
319.18565	2.12309E-08
319.35846	2.12423E-08
319.53127	2.12540E-08
319.70409	2.12660E-08
319.87690	2.12784E-08
320.04971	2.12912E-08
320.22252	2.13043E-08
320.39534	2.13178E-08
320.56815	2.13317E-08
320.74096	2.13460E-08
320.91378	2.13606E-08
321.08659	2.13754E-08
321.25940	2.13908E-08
321.43222	2.14064E-08
321.60503	2.14223E-08
321.77784	2.14386E-08
321.95066	2.14552E-08
322.12347	2.14721E-08
322.29628	2.14893E-08
322.46909	2.15067E-08
322.64191	2.15243E-08
322.81472	2.15422E-08
322.98753	2.15603E-08
323.16035	2.15787E-08
323.33316	2.15971E-08
323.50597	2.16158E-08
323.67879	2.16346E-08
323.85160	2.16535E-08
324.02441	2.16725E-08
324.19722	2.16915E-08
324.37004	2.17106E-08
324.54285	2.17297E-08
324.71566	2.17488E-08
324.88848	2.17679E-08
325.06129	2.17869E-08
325.23410	2.18059E-08
325.40692	2.18248E-08
325.57973	2.18435E-08
325.75254	2.18622E-08
325.92535	2.18807E-08
326.09817	2.18991E-08
326.27098	2.19173E-08
326.44379	2.19353E-08
326.61661	2.19530E-08
326.78942	2.19706E-08
326.96223	2.19880E-08
327.13505	2.20051E-08
327.30786	2.20221E-08
327.48067	2.20387E-08
327.65348	2.20551E-08
327.82630	2.20712E-08
327.99911	2.20872E-08
328.17192	2.21029E-08
328.34474	2.21184E-08
328.51755	2.21336E-08
328.69036	2.21486E-08
328.86318	2.21634E-08
329.03599	2.21781E-08
329.20880	2.21925E-08
329.38161	2.22068E-08
329.55443	2.22209E-08
329.72724	2.22348E-08
329.90005	2.22487E-08
330.07287	2.22625E-08
330.24568	2.22762E-08
330.41849	2.22898E-08
330.59131	2.23035E-08
330.76412	2.23171E-08
330.93693	2.23307E-08
331.10975	2.23444E-08
331.28256	2.23582E-08
331.45537	2.23720E-08
331.62818	2.23861E-08
331.80100	2.24003E-08
331.97381	2.24147E-08
332.14662	2.24292E-08
332.31944	2.24441E-08
332.49225	2.24593E-08
332.66506	2.24748E-08
332.83788	2.24906E-08
333.01069	2.25068E-08
333.18350	2.25234E-08
333.35631	2.25403E-08
333.52913	2.25577E-08
333.70194	2.25757E-08
333.87475	2.25940E-08
334.04757	2.26130E-08
334.22038	2.26324E-08
334.39319	2.26524E-08
334.56601	2.26730E-08
334.73882	2.26941E-08
334.91163	2.27158E-08
335.08444	2.27381E-08
335.25726	2.27610E-08
335.43007	2.27845E-08
335.60288	2.28086E-08
335.77570	2.28333E-08
335.94851	2.28587E-08
336.12132	2.28847E-08
336.29414	2.29112E-08
336.46695	2.29384E-08
336.63976	2.29662E-08
336.81257	2.29946E-08
336.98539	2.30236E-08
337.15820	2.30531E-08
337.33101	2.30831E-08
337.50383	2.31136E-08
337.67664	2.31447E-08
337.84945	2.31762E-08
338.02227	2.32082E-08
338.19508	2.32406E-08
338.36789	2.32734E-08
338.54070	2.33067E-08
338.71352	2.33402E-08
338.88633	2.33741E-08
339.05914	2.34082E-08
339.23196	2.34426E-08
339.40477	2.34772E-08
339.57758	2.35120E-08
339.75040	2.35470E-08
339.92321	2.35821E-08
340.09602	2.36172E-08
340.26884	2.36524E-08
340.44165	2.36876E-08
340.61446	2.37228E-08
340.78727	2.37580E-08
340.96009	2.37930E-08
341.13290	2.38280E-08
341.30571	2.38628E-08
341.47853	2.38976E-08
341.65134	2.39321E-08
341.82415	2.39663E-08
341.99697	2.40004E-08
342.16978	2.40342E-08
342.34259	2.40677E-08
342.51540	2.41009E-08
342.68822	2.41338E-08
342.86103	2.41664E-08
343.03384	2.41988E-08
343.20666	2.42307E-08
343.37947	2.42624E-08
343.55228	2.42937E-08
343.72510	2.43247E-08
343.89791	2.43554E-08
344.07072	2.43858E-08
344.24353	2.44159E-08
344.41635	2.44457E-08
344.58916	2.44753E-08
344.76197	2.45047E-08
344.93479	2.45338E-08
345.10760	2.45628E-08
345.28041	2.45916E-08
345.45323	2.46204E-08
345.62604	2.46490E-08
345.79885	2.46776E-08
345.97166	2.47061E-08
346.14448	2.47347E-08
346.31729	2.47634E-08
346.49010	2.47922E-08
346.66292	2.48213E-08
346.83573	2.48504E-08
347.00854	2.48799E-08
347.18136	2.49097E-08
347.35417	2.49398E-08
347.52698	2.49704E-08
347.69979	2.50014E-08
347.87261	2.50329E-08
348.04542	2.50651E-08
348.21823	2.50978E-08
348.39105	2.51312E-08
348.56386	2.51653E-08
348.73667	2.52000E-08
348.90949	2.52356E-08
349.08230	2.52721E-08
349.25511	2.53095E-08
349.42793	2.53477E-08
349.60074	2.53870E-08
349.77355	2.54272E-08
349.94636	2.54683E-08
350.11918	2.55106E-08
350.29199	2.55540E-08
350.46480	2.55984E-08
350.63762	2.56440E-08
350.81043	2.56906E-08
350.98324	2.57384E-08
351.15606	2.57873E-08
351.32887	2.58374E-08
351.50168	2.58886E-08
351.67449	2.59410E-08
351.84731	2.59945E-08
352.02012	2.60491E-08
352.19293	2.61049E-08
352.36575	2.61618E-08
352.53856	2.62196E-08
352.71137	2.62786E-08
352.88419	2.63386E-08
353.05700	2.63995E-08
353.22981	2.64614E-08
353.40262	2.65242E-08
353.57544	2.65878E-08
353.74825	2.66523E-08
353.92106	2.67174E-08
354.09388	2.67832E-08
354.26669	2.68497E-08
354.43950	2.69167E-08
354.61232	2.69842E-08
354.78513	2.70522E-08
354.95794	2.71204E-08
355.13075	2.71889E-08
355.30357	2.72577E-08
355.47638	2.73266E-08
355.64919	2.73955E-08
355.82201	2.74645E-08
355.99482	2.75333E-08
356.16763	2.76020E-08
356.34045	2.76704E-08
356.51326	2.77386E-08
356.68607	2.78064E-08
356.85888	2.78737E-08
357.03170	2.79405E-08
357.20451	2.80067E-08
357.37732	2.80723E-08
357.55014	2.81372E-08
357.72295	2.82014E-08
357.89576	2.82648E-08
358.06858	2.83274E-08
358.24139	2.83891E-08
358.41420	2.84500E-08
358.58702	2.85100E-08
358.75983	2.85691E-08
358.93264	2.86273E-08
359.10545	2.86845E-08
359.27827	2.87409E-08
359.45108	2.87964E-08
359.62389	2.88510E-08
359.79671	2.89048E-08
359.96952	2.89579E-08
360.14233	2.90101E-08
360.31515	2.90617E-08
360.48796	2.91127E-08
360.66077	2.91632E-08
360.83358	2.92132E-08
361.00640	2.92629E-08
361.17921	2.93122E-08
361.35202	2.93614E-08
361.52484	2.94105E-08
361.69765	2.94596E-08
361.87046	2.95090E-08
362.04328	2.95587E-08
362.21609	2.96089E-08
362.38890	2.96596E-08
362.56171	2.97110E-08
362.73453	2.97633E-08
362.90734	2.98167E-08
363.08015	2.98712E-08
363.25297	2.99272E-08
363.42578	2.99847E-08
363.59859	3.00439E-08
363.77141	3.01049E-08
363.94422	3.01679E-08
364.11703	3.02332E-08
364.28984	3.03008E-08
364.46266	3.03710E-08
364.63547	3.04439E-08
364.80828	3.05197E-08
364.98110	3.05985E-08
365.15391	3.06805E-08
365.32672	3.07658E-08
365.49954	3.08548E-08
365.67235	3.09473E-08
365.84516	3.10437E-08
366.01797	3.11441E-08
366.19079	3.12486E-08
366.36360	3.13573E-08
366.53641	3.14704E-08
366.70923	3.15879E-08
366.88204	3.17101E-08
367.05485	3.18371E-08
367.22767	3.19689E-08
367.40048	3.21055E-08
367.57329	3.22471E-08
367.74611	3.23939E-08
367.91892	3.25457E-08
368.09173	3.27028E-08
368.26454	3.28651E-08
368.43736	3.30326E-08
368.61017	3.32054E-08
368.78298	3.33834E-08
368.95580	3.35667E-08
369.12861	3.37552E-08
369.30142	3.39487E-08
369.47424	3.41474E-08
369.64705	3.43511E-08
369.81986	3.45597E-08
369.99267	3.47730E-08
370.16549	3.49908E-08
370.33830	3.52131E-08
370.51111	3.54396E-08
370.68393	3.56701E-08
370.85674	3.59043E-08
371.02955	3.61419E-08
371.20237	3.63827E-08
371.37518	3.66264E-08
371.54799	3.68725E-08
371.72080	3.71207E-08
371.89362	3.73706E-08
372.06643	3.76217E-08
372.23924	3.78736E-08
372.41206	3.81258E-08
372.58487	3.83778E-08
372.75768	3.86288E-08
372.93050	3.88784E-08
373.10331	3.91263E-08
373.27612	3.93714E-08
373.44893	3.96132E-08
373.62175	3.98512E-08
373.79456	4.00846E-08
373.96737	4.03127E-08
374.14019	4.05350E-08
374.31300	4.07506E-08
374.48581	4.09588E-08
374.65863	4.11592E-08
374.83144	4.13508E-08
375.00425	4.15331E-08
375.17706	4.17055E-08
375.34988	4.18672E-08
375.52269	4.20178E-08
375.69550	4.21565E-08
375.86832	4.22831E-08
376.04113	4.23970E-08
376.21394	4.24975E-08
376.38676	4.25846E-08
376.55957	4.26579E-08
376.73238	4.27168E-08
376.90520	4.27615E-08
377.07801	4.27917E-08
377.25082	4.28073E-08
377.42363	4.28081E-08
377.59645	4.27945E-08
377.76926	4.27665E-08
377.94207	4.27241E-08
378.11489	4.26676E-08
378.28770	4.25976E-08
378.46051	4.25139E-08
378.63333	4.24174E-08
378.80614	4.23082E-08
378.97895	4.21870E-08
379.15176	4.20542E-08
379.32458	4.19105E-08
379.49739	4.17565E-08
379.67020	4.15928E-08
379.84302	4.14201E-08
380.01583	4.12390E-08
380.18864	4.10503E-08
380.36146	4.08546E-08
380.53427	4.06528E-08
380.70708	4.04454E-08
380.87989	4.02330E-08
381.05271	4.00166E-08
381.22552	3.97968E-08
381.39833	3.95741E-08
381.57115	3.93493E-08
381.74396	3.91232E-08
381.91677	3.88960E-08
382.08959	3.86686E-08
382.26240	3.84414E-08
382.43521	3.82151E-08
382.60802	3.79900E-08
382.78084	3.77669E-08
382.95365	3.75460E-08
383.12646	3.73278E-08
383.29928	3.71128E-08
383.47209	3.69012E-08
383.64490	3.66936E-08
383.81772	3.64900E-08
383.99053	3.62910E-08
384.16334	3.60968E-08
384.33616	3.59075E-08
384.50897	3.57234E-08
384.68178	3.55447E-08
384.85459	3.53718E-08
385.02741	3.52044E-08
385.20022	3.50431E-08
385.37303	3.48877E-08
385.54585	3.47384E-08
385.71866	3.45953E-08
385.89147	3.44585E-08
386.06429	3.43280E-08
386.23710	3.42040E-08
386.40991	3.40863E-08
386.58272	3.39749E-08
386.75554	3.38699E-08
386.92835	3.37711E-08
387.10116	3.36787E-08
387.27398	3.35925E-08
387.44679	3.35126E-08
387.61960	3.34388E-08
387.79242	3.33710E-08
387.96523	3.33093E-08
388.13804	3.32533E-08
388.31085	3.32032E-08
388.48367	3.31588E-08
388.65648	3.31199E-08
388.82929	3.30864E-08
389.00211	3.30582E-08
389.17492	3.30352E-08
389.34773	3.30172E-08
389.52055	3.30039E-08
389.69336	3.29954E-08
389.86617	3.29914E-08
390.03898	3.29917E-08
390.21180	3.29961E-08
390.38461	3.30045E-08
390.55742	3.30167E-08
390.73024	3.30325E-08
390.90305	3.30517E-08
391.07586	3.30741E-08
391.24868	3.30994E-08
391.42149	3.31277E-08
391.59430	3.31584E-08
391.76711	3.31916E-08
391.93993	3.32269E-08
392.11274	3.32641E-08
392.28555	3.33032E-08
392.45837	3.33437E-08
392.63118	3.33856E-08
392.80399	3.34286E-08
392.97681	3.34725E-08
393.14962	3.35171E-08
393.32243	3.35622E-08
393.49525	3.36077E-08
393.66806	3.36532E-08
393.84087	3.36987E-08
394.01368	3.37440E-08
394.18650	3.37888E-08
394.35931	3.38330E-08
394.53212	3.38765E-08
394.70494	3.39191E-08
394.87775	3.39606E-08
395.05056	3.40010E-08
395.22338	3.40401E-08
395.39619	3.40778E-08
395.56900	3.41139E-08
395.74181	3.41485E-08
395.91463	3.41814E-08
396.08744	3.42124E-08
396.26025	3.42418E-08
396.43307	3.42692E-08
396.60588	3.42948E-08
396.77869	3.43184E-08
396.95151	3.43401E-08
397.12432	3.43600E-08
397.29713	3.43778E-08
397.46994	3.43938E-08
397.64276	3.44079E-08
397.81557	3.44202E-08
397.98838	3.44307E-08
398.16120	3.44395E-08
398.33401	3.44467E-08
398.50682	3.44523E-08
398.67964	3.44564E-08
398.85245	3.44591E-08
399.02526	3.44606E-08
399.19807	3.44609E-08
399.37089	3.44601E-08
399.54370	3.44583E-08
399.71651	3.44557E-08
399.88933	3.44525E-08
400.06214	3.44486E-08
400.23495	3.44443E-08
400.40777	3.44396E-08
400.58058	3.44347E-08
400.75339	3.44299E-08
400.92620	3.44249E-08
401.09902	3.44202E-08
401.27183	3.44159E-08
401.44464	3.44119E-08
401.61746	3.44086E-08
401.79027	3.44058E-08
401.96308	3.44039E-08
402.13590	3.44029E-08
402.30871	3.44029E-08
402.48152	3.44040E-08
402.65434	3.44062E-08
402.82715	3.44098E-08
402.99996	3.44148E-08
403.17277	3.44212E-08
403.34559	3.44293E-08
403.51840	3.44389E-08
403.69121	3.44503E-08
403.86403	3.44635E-08
404.03684	3.44784E-08
404.20965	3.44952E-08
404.38247	3.45140E-08
404.55528	3.45345E-08
404.72809	3.45571E-08
404.90090	3.45817E-08
405.07372	3.46082E-08
405.24653	3.46368E-08
405.41934	3.46673E-08
405.59216	3.46999E-08
405.76497	3.47345E-08
405.93778	3.47711E-08
406.11060	3.48096E-08
406.28341	3.48500E-08
406.45622	3.48924E-08
406.62903	3.49365E-08
406.80185	3.49825E-08
406.97466	3.50303E-08
407.14747	3.50798E-08
407.32029	3.51309E-08
407.49310	3.51837E-08
407.66591	3.52379E-08
407.83873	3.52937E-08
408.01154	3.53507E-08
408.18435	3.54091E-08
408.35716	3.54687E-08
408.52998	3.55294E-08
408.70279	3.55912E-08
408.87560	3.56540E-08
409.04842	3.57176E-08
409.22123	3.57821E-08
409.39404	3.58471E-08
409.56686	3.59128E-08
409.73967	3.59788E-08
409.91248	3.60453E-08
410.08529	3.61122E-08
410.25811	3.61793E-08
410.43092	3.62464E-08
410.60373	3.63136E-08
410.77655	3.63807E-08
410.94936	3.64476E-08
411.12217	3.65144E-08
411.29499	3.65808E-08
411.46780	3.66468E-08
411.64061	3.67123E-08
411.81343	3.67772E-08
411.98624	3.68415E-08
412.15905	3.69052E-08
412.33186	3.69680E-08
412.50468	3.70301E-08
412.67749	3.70913E-08
412.85030	3.71517E-08
413.02312	3.72110E-08
413.19593	3.72694E-08
413.36874	3.73269E-08
413.54156	3.73832E-08
413.71437	3.74385E-08
413.88718	3.74927E-08
414.05999	3.75459E-08
414.23281	3.75979E-08
414.40562	3.76489E-08
414.57843	3.76989E-08
414.75125	3.77478E-08
414.92406	3.77957E-08
415.09687	3.78426E-08
415.26969	3.78886E-08
415.44250	3.79335E-08
415.61531	3.79777E-08
415.78812	3.80210E-08
415.96094	3.80634E-08
416.13375	3.81053E-08
416.30656	3.81465E-08
416.47938	3.81871E-08
416.65219	3.82271E-08
416.82500	3.82667E-08
416.99782	3.83060E-08
417.17063	3.83449E-08
417.34344	3.83837E-08
417.51625	3.84223E-08
417.68907	3.84608E-08
417.86188	3.84994E-08
418.03469	3.85381E-08
418.20751	3.85770E-08
418.38032	3.86165E-08
418.55313	3.86563E-08
418.72595	3.86965E-08
418.89876	3.87373E-08
419.07157	3.87790E-08
419.24438	3.88213E-08
419.41720	3.88647E-08
419.59001	3.89091E-08
419.76282	3.89546E-08
419.93564	3.90012E-08
420.10845	3.90491E-08
420.28126	3.90984E-08
420.45408	3.91492E-08
420.62689	3.92015E-08
420.79970	3.92556E-08
420.97252	3.93113E-08
421.14533	3.93688E-08
421.31814	3.94283E-08
421.49095	3.94898E-08
421.66377	3.95533E-08
421.83658	3.96189E-08
422.00939	3.96867E-08
422.18221	3.97568E-08
422.35502	3.98292E-08
422.52783	3.99041E-08
422.70065	3.99814E-08
422.87346	4.00613E-08
423.04627	4.01437E-08
423.21908	4.02285E-08
423.39190	4.03161E-08
423.56471	4.04065E-08
423.73752	4.04995E-08
423.91034	4.05955E-08
424.08315	4.06940E-08
424.25596	4.07954E-08
424.42878	4.08998E-08
424.60159	4.10068E-08
424.77440	4.11169E-08
424.94721	4.12297E-08
425.12003	4.13454E-08
425.29284	4.14639E-08
425.46565	4.15852E-08
425.63847	4.17093E-08
425.81128	4.18361E-08
425.98409	4.19657E-08
426.15691	4.20979E-08
426.32972	4.22329E-08
426.50253	4.23702E-08
426.67534	4.25100E-08
426.84816	4.26523E-08
427.02097	4.27969E-08
427.19378	4.29437E-08
427.36660	4.30927E-08
427.53941	4.32437E-08
427.71222	4.33965E-08
427.88504	4.35512E-08
428.05785	4.37074E-08
428.23066	4.38651E-08
428.40347	4.40240E-08
428.57629	4.41841E-08
428.74910	4.43451E-08
428.92191	4.45068E-08
429.09473	4.46690E-08
429.26754	4.48315E-08
429.44035	4.49939E-08
429.61317	4.51563E-08
429.78598	4.53182E-08
429.95879	4.54793E-08
430.13161	4.56396E-08
430.30442	4.57986E-08
430.47723	4.59559E-08
430.65004	4.61113E-08
430.82286	4.62646E-08
430.99567	4.64154E-08
431.16848	4.65632E-08
431.34130	4.67078E-08
431.51411	4.68489E-08
431.68692	4.69861E-08
431.85974	4.71191E-08
432.03255	4.72474E-08
432.20536	4.73708E-08
432.37817	4.74889E-08
432.55099	4.76013E-08
432.72380	4.77077E-08
432.89661	4.78077E-08
433.06943	4.79009E-08
433.24224	4.79872E-08
433.41505	4.80659E-08
433.58787	4.81370E-08
433.76068	4.82002E-08
433.93349	4.82550E-08
434.10630	4.83014E-08
434.27912	4.83391E-08
434.45193	4.83676E-08
434.62474	4.83872E-08
434.79756	4.83973E-08
434.97037	4.83979E-08
435.14318	4.83890E-08
435.31600	4.83704E-08
435.48881	4.83420E-08
435.66162	4.83039E-08
435.83443	4.82558E-08
436.00725	4.81983E-08
436.18006	4.81310E-08
436.35287	4.80542E-08
436.52569	4.79679E-08
436.69850	4.78723E-08
436.87131	4.77678E-08
437.04413	4.76544E-08
437.21694	4.75325E-08
437.38975	4.74023E-08
437.56256	4.72641E-08
437.73538	4.71182E-08
437.90819	4.69650E-08
438.08100	4.68049E-08
438.25382	4.66383E-08
438.42663	4.64654E-08
438.59944	4.62869E-08
438.77226	4.61034E-08
438.94507	4.59149E-08
439.11788	4.57221E-08
439.29070	4.55254E-08
439.46351	4.53252E-08
439.63632	4.51222E-08
439.80913	4.49167E-08
439.98195	4.47093E-08
440.15476	4.45002E-08
440.32757	4.42903E-08
440.50039	4.40796E-08
440.67320	4.38689E-08
440.84601	4.36583E-08
441.01883	4.34485E-08
441.19164	4.32398E-08
441.36445	4.30326E-08
441.53726	4.28274E-08
441.71008	4.26245E-08
441.88289	4.24243E-08
442.05570	4.22271E-08
442.22852	4.20333E-08
442.40133	4.18432E-08
442.57414	4.16572E-08
442.74696	4.14754E-08
442.91977	4.12981E-08
443.09258	4.11258E-08
443.26539	4.09586E-08
443.43821	4.07966E-08
443.61102	4.06403E-08
443.78383	4.04897E-08
443.95665	4.03451E-08
444.12946	4.02067E-08
444.30227	4.00745E-08
444.47509	3.99489E-08
444.64790	3.98299E-08
444.82071	3.97177E-08
444.99352	3.96123E-08
445.16634	3.95140E-08
445.33915	3.94227E-08
445.51196	3.93386E-08
445.68478	3.92617E-08
445.85759	3.91922E-08
446.03040	3.91301E-08
446.20322	3.90754E-08
446.37603	3.90282E-08
446.54884	3.89885E-08
446.72165	3.89563E-08
446.89447	3.89316E-08
447.06728	3.89144E-08
447.24009	3.89048E-08
447.41291	3.89027E-08
447.58572	3.89080E-08
447.75853	3.89208E-08
447.93135	3.89410E-08
448.10416	3.89686E-08
448.27697	3.90035E-08
448.44979	3.90456E-08
448.62260	3.90949E-08
448.79541	3.91512E-08
448.96822	3.92144E-08
449.14104	3.92845E-08
449.31385	3.93614E-08
449.48666	3.94449E-08
449.65948	3.95347E-08
449.83229	3.96310E-08
450.00510	3.97333E-08
450.17792	3.98415E-08
450.35073	3.99555E-08
450.52354	4.00750E-08
450.69635	4.02000E-08
450.86917	4.03300E-08
451.04198	4.04649E-08
451.21479	4.06045E-08
451.38761	4.07486E-08
451.56042	4.08967E-08
451.73323	4.10485E-08
451.90605	4.12039E-08
452.07886	4.13626E-08
452.25167	4.15242E-08
452.42448	4.16884E-08
452.59730	4.18547E-08
452.77011	4.20229E-08
452.94292	4.21926E-08
453.11574	4.23636E-08
453.28855	4.25353E-08
453.46136	4.27074E-08
453.63418	4.28796E-08
453.80699	4.30514E-08
453.97980	4.32224E-08
454.15261	4.33924E-08
454.32543	4.35608E-08
454.49824	4.37274E-08
454.67105	4.38917E-08
454.84387	4.40534E-08
455.01668	4.42119E-08
455.18949	4.43672E-08
455.36231	4.45187E-08
455.53512	4.46661E-08
455.70793	4.48093E-08
455.88074	4.49477E-08
456.05356	4.50813E-08
456.22637	4.52097E-08
456.39918	4.53325E-08
456.57200	4.54498E-08
456.74481	4.55611E-08
456.91762	4.56664E-08
457.09044	4.57655E-08
457.26325	4.58584E-08
457.43606	4.59449E-08
457.60888	4.60249E-08
457.78169	4.60984E-08
457.95450	4.61654E-08
458.12731	4.62261E-08
458.30013	4.62804E-08
458.47294	4.63283E-08
458.64575	4.63700E-08
458.81857	4.64056E-08
458.99138	4.64353E-08
459.16419	4.64591E-08
459.33701	4.64773E-08
459.50982	4.64903E-08
459.68263	4.64981E-08
459.85544	4.65011E-08
460.02826	4.64995E-08
460.20107	4.64936E-08
460.37388	4.64836E-08
460.54670	4.64700E-08
460.71951	4.64530E-08
460.89232	4.64329E-08
461.06514	4.64102E-08
461.23795	4.63848E-08
461.41076	4.63574E-08
461.58357	4.63284E-08
461.75639	4.62979E-08
461.92920	4.62663E-08
462.10201	4.62339E-08
462.27483	4.62012E-08
462.44764	4.61683E-08
462.62045	4.61356E-08
462.79327	4.61036E-08
462.96608	4.60722E-08
463.13889	4.60419E-08
463.31170	4.60131E-08
463.48452	4.59858E-08
463.65733	4.59603E-08
463.83014	4.59371E-08
464.00296	4.59161E-08
464.17577	4.58979E-08
464.34858	4.58822E-08
464.52140	4.58696E-08
464.69421	4.58602E-08
464.86702	4.58540E-08
465.03983	4.58513E-08
465.21265	4.58522E-08
465.38546	4.58567E-08
465.55827	4.58651E-08
465.73109	4.58773E-08
465.90390	4.58936E-08
466.07671	4.59139E-08
466.24953	4.59382E-08
466.42234	4.59668E-08
466.59515	4.59994E-08
466.76797	4.60363E-08
466.94078	4.60773E-08
467.11359	4.61225E-08
467.28640	4.61718E-08
467.45922	4.62252E-08
467.63203	4.62826E-08
467.80484	4.63440E-08
467.97766	4.64092E-08
468.15047	4.64785E-08
468.32328	4.65513E-08
468.49610	4.66277E-08
468.66891	4.67077E-08
468.84172	4.67911E-08
469.01453	4.68777E-08
469.18735	4.69675E-08
469.36016	4.70603E-08
469.53297	4.71559E-08
469.70579	4.72543E-08
469.87860	4.73550E-08
470.05141	4.74582E-08
470.22423	4.75635E-08
470.39704	4.76708E-08
470.56985	4.77799E-08
470.74266	4.78907E-08
470.91548	4.80028E-08
471.08829	4.81163E-08
471.26110	4.82310E-08
471.43392	4.83464E-08
471.60673	4.84627E-08
471.77954	4.85795E-08
471.95236	4.86968E-08
472.12517	4.88144E-08
472.29798	4.89319E-08
472.47079	4.90495E-08
472.64361	4.91668E-08
472.81642	4.92837E-08
472.98923	4.94002E-08
473.16205	4.95160E-08
473.33486	4.96311E-08
473.50767	4.97455E-08
473.68049	4.98589E-08
473.85330	4.99712E-08
474.02611	5.00824E-08
474.19892	5.01924E-08
474.37174	5.03013E-08
474.54455	5.04092E-08
474.71736	5.05156E-08
474.89018	5.06208E-08
475.06299	5.07245E-08
475.23580	5.08271E-08
475.40862	5.09285E-08
475.58143	5.10286E-08
475.75424	5.11276E-08
475.92706	5.12254E-08
476.09987	5.13221E-08
476.27268	5.14179E-08
476.44549	5.15127E-08
476.61831	5.16066E-08
476.79112	5.16999E-08
476.96393	5.17925E-08
477.13675	5.18846E-08
477.30956	5.19761E-08
477.48237	5.20674E-08
477.65519	5.21584E-08
477.82800	5.22493E-08
478.00081	5.23402E-08
478.17362	5.24315E-08
478.34644	5.25229E-08
478.51925	5.26148E-08
478.69206	5.27072E-08
478.86488	5.28002E-08
479.03769	5.28940E-08
479.21050	5.29888E-08
479.38332	5.30846E-08
479.55613	5.31814E-08
479.72894	5.32795E-08
479.90175	5.33788E-08
480.07457	5.34795E-08
480.24738	5.35816E-08
480.42019	5.36853E-08
480.59301	5.37907E-08
480.76582	5.38976E-08
480.93863	5.40063E-08
481.11145	5.41166E-08
481.28426	5.42287E-08
481.45707	5.43428E-08
481.62988	5.44586E-08
481.80270	5.45760E-08
481.97551	5.46954E-08
482.14832	5.48164E-08
482.32114	5.49393E-08
482.49395	5.50637E-08
482.66676	5.51897E-08
482.83958	5.53172E-08
483.01239	5.54462E-08
483.18520	5.55765E-08
483.35801	5.57082E-08
483.53083	5.58409E-08
483.70364	5.59749E-08
483.87645	5.61097E-08
484.04927	5.62453E-08
484.22208	5.63815E-08
484.39489	5.65184E-08
484.56771	5.66556E-08
484.74052	5.67932E-08
484.91333	5.69307E-08
485.08615	5.70681E-08
485.25896	5.72050E-08
485.43177	5.73418E-08
485.60458	5.74778E-08
485.77740	5.76132E-08
485.95021	5.77475E-08
486.12302	5.78808E-08
486.29584	5.80128E-08
486.46865	5.81433E-08
486.64146	5.82725E-08
486.81428	5.84000E-08
486.98709	5.85255E-08
487.15990	5.86493E-08
487.33271	5.87711E-08
487.50553	5.88906E-08
487.67834	5.90079E-08
487.85115	5.91230E-08
488.02397	5.92356E-08
488.19678	5.93460E-08
488.36959	5.94538E-08
488.54241	5.95595E-08
488.71522	5.96624E-08
488.88803	5.97630E-08
489.06084	5.98614E-08
489.23366	5.99573E-08
489.40647	6.00513E-08
489.57928	6.01430E-08
489.75210	6.02326E-08
489.92491	6.03206E-08
490.09772	6.04069E-08
490.27054	6.04915E-08
490.44335	6.05745E-08
490.61616	6.06564E-08
490.78897	6.07375E-08
490.96179	6.08178E-08
491.13460	6.08974E-08
491.30741	6.09768E-08
491.48023	6.10562E-08
491.65304	6.11356E-08
491.82585	6.12157E-08
491.99867	6.12964E-08
492.17148	6.13783E-08
492.34429	6.14615E-08
492.51710	6.15464E-08
492.68992	6.16331E-08
492.86273	6.17219E-08
493.03554	6.18134E-08
493.20836	6.19077E-08
493.38117	6.20049E-08
493.55398	6.21057E-08
493.72680	6.22102E-08
493.89961	6.23183E-08
494.07242	6.24310E-08
494.24524	6.25480E-08
494.41805	6.26698E-08
494.59086	6.27966E-08
494.76367	6.29285E-08
494.93649	6.30659E-08
495.10930	6.32089E-08
495.28211	6.33578E-08
495.45493	6.35126E-08
495.62774	6.36737E-08
495.80055	6.38410E-08
495.97337	6.40145E-08
496.14618	6.41947E-08
496.31899	6.43815E-08
496.49180	6.45748E-08
496.66462	6.47750E-08
496.83743	6.49818E-08
497.01024	6.51951E-08
497.18306	6.54151E-08
497.35587	6.56415E-08
497.52868	6.58743E-08
497.70150	6.61134E-08
497.87431	6.63584E-08
498.04712	6.66096E-08
498.21993	6.68662E-08
498.39275	6.71283E-08
498.56556	6.73955E-08
498.73837	6.76673E-08
498.91119	6.79437E-08
499.08400	6.82240E-08
499.25681	6.85079E-08
499.42963	6.87946E-08
499.60244	6.90841E-08
499.77525	6.93754E-08
499.94806	6.96683E-08
500.12088	6.99620E-08
500.29369	7.02555E-08
500.46650	7.05486E-08
500.63932	7.08405E-08
500.81213	7.11306E-08
500.98494	7.14180E-08
501.15776	7.17017E-08
501.33057	7.19812E-08
501.50338	7.22554E-08
501.67619	7.25239E-08
501.84901	7.27851E-08
502.02182	7.30391E-08
502.19463	7.32844E-08
502.36745	7.35206E-08
502.54026	7.37464E-08
502.71307	7.39613E-08
502.88589	7.41645E-08
503.05870	7.43548E-08
503.23151	7.45322E-08
503.40433	7.46956E-08
503.57714	7.48444E-08
503.74995	7.49778E-08
503.92276	7.50957E-08
504.09558	7.51973E-08
504.26839	7.52820E-08
504.44120	7.53497E-08
504.61402	7.53999E-08
504.78683	7.54328E-08
504.95964	7.54480E-08
505.13246	7.54453E-08
505.30527	7.54246E-08
505.47808	7.53863E-08
505.65089	7.53302E-08
505.82371	7.52570E-08
505.99652	7.51667E-08
506.16933	7.50597E-08
506.34215	7.49364E-08
506.51496	7.47976E-08
506.68777	7.46433E-08
506.86059	7.44749E-08
507.03340	7.42924E-08
507.20621	7.40966E-08
507.37902	7.38887E-08
507.55184	7.36693E-08
507.72465	7.34391E-08
507.89746	7.31992E-08
508.07028	7.29501E-08
508.24309	7.26934E-08
508.41590	7.24296E-08
508.58872	7.21594E-08
508.76153	7.18840E-08
508.93434	7.16043E-08
509.10715	7.13210E-08
509.27997	7.10353E-08
509.45278	7.07482E-08
509.62559	7.04603E-08
509.79841	7.01724E-08
509.97122	6.98855E-08
510.14403	6.96001E-08
510.31685	6.93173E-08
510.48966	6.90377E-08
510.66247	6.87619E-08
510.83529	6.84910E-08
511.00810	6.82252E-08
511.18091	6.79654E-08
511.35372	6.77119E-08
511.52654	6.74653E-08
511.69935	6.72263E-08
511.87216	6.69954E-08
512.04498	6.67729E-08
512.21779	6.65592E-08
512.39060	6.63547E-08
512.56342	6.61596E-08
512.73623	6.59746E-08
512.90904	6.57996E-08
513.08185	6.56351E-08
513.25467	6.54810E-08
513.42748	6.53380E-08
513.60029	6.52057E-08
513.77311	6.50847E-08
513.94592	6.49748E-08
514.11873	6.48763E-08
514.29155	6.47891E-08
514.46436	6.47132E-08
514.63717	6.46488E-08
514.80998	6.45958E-08
514.98280	6.45540E-08
515.15561	6.45237E-08
515.32842	6.45045E-08
515.50124	6.44964E-08
515.67405	6.44994E-08
515.84686	6.45130E-08
516.01968	6.45373E-08
516.19249	6.45721E-08
516.36530	6.46173E-08
516.53811	6.46723E-08
516.71093	6.47371E-08
516.88374	6.48117E-08
517.05655	6.48952E-08
517.22937	6.49876E-08
517.40218	6.50889E-08
517.57499	6.51981E-08
517.74781	6.53154E-08
517.92062	6.54399E-08
518.09343	6.55716E-08
518.26624	6.57100E-08
518.43906	6.58544E-08
518.61187	6.60049E-08
518.78468	6.61605E-08
518.95750	6.63210E-08
519.13031	6.64859E-08
519.30312	6.66546E-08
519.47594	6.68268E-08
519.64875	6.70017E-08
519.82156	6.71789E-08
519.99438	6.73579E-08
520.16719	6.75383E-08
520.34000	6.77194E-08
520.51281	6.79006E-08
520.68563	6.80815E-08
520.85844	6.82615E-08
521.03125	6.84402E-08
521.20407	6.86170E-08
521.37688	6.87912E-08
521.54969	6.89627E-08
521.72251	6.91307E-08
521.89532	6.92948E-08
522.06813	6.94549E-08
522.24094	6.96099E-08
522.41376	6.97601E-08
522.58657	6.99045E-08
522.75938	7.00433E-08
522.93220	7.01761E-08
523.10501	7.03024E-08
523.27782	7.04219E-08
523.45064	7.05345E-08
523.62345	7.06400E-08
523.79626	7.07383E-08
523.96907	7.08290E-08
524.14189	7.09125E-08
524.31470	7.09883E-08
524.48751	7.10565E-08
524.66033	7.11170E-08
524.83314	7.11704E-08
525.00595	7.12160E-08
525.17877	7.12544E-08
525.35158	7.12855E-08
525.52439	7.13096E-08
525.69720	7.13268E-08
525.87002	7.13375E-08
526.04283	7.13417E-08
526.21564	7.13398E-08
526.38846	7.13321E-08
526.56127	7.13188E-08
526.73408	7.13002E-08
526.90690	7.12769E-08
527.07971	7.12489E-08
527.25252	7.12169E-08
527.42533	7.11807E-08
527.59815	7.11414E-08
527.77096	7.10986E-08
527.94377	7.10533E-08
528.11659	7.10055E-08
528.28940	7.09556E-08
528.46221	7.09042E-08
528.63503	7.08515E-08
528.80784	7.07978E-08
528.98065	7.07437E-08
529.15347	7.06889E-08
529.32628	7.06343E-08
529.49909	7.05801E-08
529.67190	7.05264E-08
529.84472	7.04737E-08
530.01753	7.04220E-08
530.19034	7.03718E-08
530.36316	7.03235E-08
530.53597	7.02767E-08
530.70878	7.02320E-08
530.88160	7.01898E-08
531.05441	7.01497E-08
531.22722	7.01123E-08
531.40003	7.00774E-08
531.57285	7.00454E-08
531.74566	7.00163E-08
531.91847	6.99900E-08
532.09129	6.99666E-08
532.26410	6.99464E-08
532.43691	6.99293E-08
532.60973	6.99150E-08
532.78254	6.99038E-08
532.95535	6.98957E-08
533.12816	6.98904E-08
533.30098	6.98879E-08
533.47379	6.98884E-08
533.64660	6.98915E-08
533.81942	6.98974E-08
533.99223	6.99056E-08
534.16504	6.99163E-08
534.33786	6.99295E-08
534.51067	6.99444E-08
534.68348	6.99616E-08
534.85629	6.99808E-08
535.02911	7.00017E-08
535.20192	7.00241E-08
535.37473	7.00477E-08
535.54755	7.00726E-08
535.72036	7.00985E-08
535.89317	7.01253E-08
536.06599	7.01532E-08
536.23880	7.01811E-08
536.41161	7.02095E-08
536.58442	7.02383E-08
536.75724	7.02673E-08
536.93005	7.02959E-08
537.10286	7.03243E-08
537.27568	7.03525E-08
537.44849	7.03800E-08
537.62130	7.04070E-08
537.79412	7.04332E-08
537.96693	7.04586E-08
538.13974	7.04829E-08
538.31256	7.05063E-08
538.48537	7.05283E-08
538.65818	7.05494E-08
538.83099	7.05693E-08
539.00381	7.05881E-08
539.17662	7.06054E-08
539.34943	7.06215E-08
539.52225	7.06361E-08
539.69506	7.06498E-08
539.86787	7.06620E-08
540.04069	7.06730E-08
540.21350	7.06827E-08
540.38631	7.06918E-08
540.55912	7.06996E-08
540.73194	7.07063E-08
540.90475	7.07124E-08
541.07756	7.07178E-08
541.25038	7.07226E-08
541.42319	7.07270E-08
541.59600	7.07306E-08
541.76882	7.07346E-08
541.94163	7.07381E-08
542.11444	7.07421E-08
542.28725	7.07459E-08
542.46007	7.07504E-08
542.63288	7.07553E-08
542.80569	7.07610E-08
542.97851	7.07676E-08
543.15132	7.07754E-08
543.32413	7.07844E-08
543.49695	7.07948E-08
543.66976	7.08067E-08
543.84257	7.08205E-08
544.01538	7.08361E-08
544.18820	7.08536E-08
544.36101	7.08734E-08
544.53382	7.08956E-08
544.70664	7.09203E-08
544.87945	7.09474E-08
545.05226	7.09776E-08
545.22508	7.10103E-08
545.39789	7.10460E-08
545.57070	7.10847E-08
545.74351	7.11267E-08
545.91633	7.11717E-08
546.08914	7.12199E-08
546.26195	7.12715E-08
546.43477	7.13265E-08
546.60758	7.13848E-08
546.78039	7.14464E-08
546.95321	7.15116E-08
547.12602	7.15802E-08
547.29883	7.16523E-08
547.47165	7.17277E-08
547.64446	7.18065E-08
547.81727	7.18887E-08
547.99008	7.19739E-08
548.16290	7.20624E-08
548.33571	7.21540E-08
548.50852	7.22488E-08
548.68134	7.23464E-08
548.85415	7.24469E-08
549.02696	7.25498E-08
549.19978	7.26555E-08
549.37259	7.27638E-08
549.54540	7.28740E-08
549.71821	7.29868E-08
549.89103	7.31013E-08
550.06384	7.32177E-08
550.23665	7.33359E-08
550.40947	7.34557E-08
550.58228	7.35768E-08
550.75509	7.36990E-08
550.92791	7.38222E-08
551.10072	7.39463E-08
551.27353	7.40708E-08
551.44634	7.41960E-08
551.61916	7.43216E-08
551.79197	7.44473E-08
551.96478	7.45729E-08
552.13760	7.46979E-08
552.31041	7.48230E-08
552.48322	7.49472E-08
552.65604	7.50710E-08
552.82885	7.51939E-08
553.00166	7.53160E-08
553.17447	7.54369E-08
553.34729	7.55567E-08
553.52010	7.56751E-08
553.69291	7.57921E-08
553.86573	7.59078E-08
554.03854	7.60219E-08
554.21135	7.61343E-08
554.38417	7.62450E-08
554.55698	7.63543E-08
554.72979	7.64615E-08
554.90260	7.65673E-08
555.07542	7.66713E-08
555.24823	7.67737E-08
555.42104	7.68744E-08
555.59386	7.69737E-08
555.76667	7.70712E-08
555.93948	7.71674E-08
556.11230	7.72619E-08
556.28511	7.73554E-08
556.45792	7.74474E-08
556.63074	7.75386E-08
556.80355	7.76286E-08
556.97636	7.77177E-08
557.14917	7.78061E-08
557.32199	7.78937E-08
557.49480	7.79809E-08
557.66761	7.80678E-08
557.84043	7.81543E-08
558.01324	7.82411E-08
558.18605	7.83276E-08
558.35887	7.84148E-08
558.53168	7.85024E-08
558.70449	7.85902E-08
558.87730	7.86789E-08
559.05012	7.87689E-08
559.22293	7.88595E-08
559.39574	7.89515E-08
559.56856	7.90447E-08
559.74137	7.91394E-08
559.91418	7.92355E-08
560.08700	7.93336E-08
560.25981	7.94334E-08
560.43262	7.95351E-08
560.60543	7.96389E-08
560.77825	7.97447E-08
560.95106	7.98526E-08
561.12387	7.99627E-08
561.29669	8.00747E-08
561.46950	8.01893E-08
561.64231	8.03061E-08
561.81513	8.04253E-08
561.98794	8.05465E-08
562.16075	8.06702E-08
562.33356	8.07960E-08
562.50638	8.09240E-08
562.67919	8.10543E-08
562.85200	8.11864E-08
563.02482	8.13208E-08
563.19763	8.14564E-08
563.37044	8.15942E-08
563.54326	8.17334E-08
563.71607	8.18742E-08
563.88888	8.20161E-08
564.06169	8.21592E-08
564.23451	8.23033E-08
564.40732	8.24483E-08
564.58013	8.25935E-08
564.75295	8.27393E-08
564.92576	8.28854E-08
565.09857	8.30312E-08
565.27139	8.31768E-08
565.44420	8.33219E-08
565.61701	8.34660E-08
565.78983	8.36093E-08
565.96264	8.37514E-08
566.13545	8.38920E-08
566.30826	8.40308E-08
566.48108	8.41680E-08
566.65389	8.43027E-08
566.82670	8.44355E-08
566.99952	8.45654E-08
567.17233	8.46928E-08
567.34514	8.48174E-08
567.51796	8.49388E-08
567.69077	8.50568E-08
567.86358	8.51714E-08
568.03639	8.52825E-08
568.20921	8.53898E-08
568.38202	8.54930E-08
568.55483	8.55928E-08
568.72765	8.56885E-08
568.90046	8.57802E-08
569.07327	8.58680E-08
569.24609	8.59514E-08
569.41890	8.60308E-08
569.59171	8.61067E-08
569.76452	8.61780E-08
569.93734	8.62457E-08
570.11015	8.63096E-08
570.28296	8.63698E-08
570.45578	8.64265E-08
570.62859	8.64797E-08
570.80140	8.65300E-08
570.97422	8.65768E-08
571.14703	8.66209E-08
571.31984	8.66630E-08
571.49265	8.67021E-08
571.66547	8.67395E-08
571.83828	8.67749E-08
572.01109	8.68087E-08
572.18391	8.68415E-08
572.35672	8.68735E-08
572.52953	8.69047E-08
572.70235	8.69359E-08
572.87516	8.69672E-08
573.04797	8.69987E-08
573.22078	8.70313E-08
573.39360	8.70647E-08
573.56641	8.70997E-08
573.73922	8.71363E-08
573.91204	8.71749E-08
574.08485	8.72163E-08
574.25766	8.72603E-08
574.43048	8.73074E-08
574.60329	8.73581E-08
574.77610	8.74122E-08
574.94892	8.74703E-08
575.12173	8.75329E-08
575.29454	8.75999E-08
575.46735	8.76719E-08
575.64017	8.77486E-08
575.81298	8.78308E-08
575.98579	8.79185E-08
576.15861	8.80120E-08
576.33142	8.81114E-08
576.50423	8.82171E-08
576.67705	8.83287E-08
576.84986	8.84465E-08
577.02267	8.85707E-08
577.19548	8.87017E-08
577.36830	8.88393E-08
577.54111	8.89833E-08
577.71392	8.91339E-08
577.88674	8.92908E-08
578.05955	8.94544E-08
578.23236	8.96247E-08
578.40518	8.98012E-08
578.57799	8.99844E-08
578.75080	9.01735E-08
578.92361	9.03685E-08
579.09643	9.05697E-08
579.26924	9.07766E-08
579.44205	9.09889E-08
579.61487	9.12064E-08
579.78768	9.14291E-08
579.96049	9.16564E-08
580.13331	9.18882E-08
580.30612	9.21240E-08
580.47893	9.23639E-08
580.65174	9.26070E-08
580.82456	9.28531E-08
580.99737	9.31022E-08
581.17018	9.33536E-08
581.34300	9.36068E-08
581.51581	9.38618E-08
581.68862	9.41175E-08
581.86144	9.43742E-08
582.03425	9.46310E-08
582.20706	9.48874E-08
582.37987	9.51435E-08
582.55269	9.53986E-08
582.72550	9.56520E-08
582.89831	9.59038E-08
583.07113	9.61532E-08
583.24394	9.63996E-08
583.41675	9.66433E-08
583.58957	9.68831E-08
583.76238	9.71194E-08
583.93519	9.73512E-08
584.10801	9.75792E-08
584.28082	9.78016E-08
584.45363	9.80195E-08
584.62644	9.82320E-08
584.79926	9.84387E-08
584.97207	9.86397E-08
585.14488	9.88352E-08
585.31770	9.90247E-08
585.49051	9.92078E-08
585.66332	9.93851E-08
585.83614	9.95561E-08
586.00895	9.97211E-08
586.18176	9.98799E-08
586.35457	1.00033E-07
586.52739	1.00180E-07
586.70020	1.00321E-07
586.87301	1.00457E-07
587.04583	1.00587E-07
587.21864	1.00712E-07
587.39145	1.00833E-07
587.56427	1.00949E-07
587.73708	1.01061E-07
587.90989	1.01169E-07
588.08270	1.01273E-07
588.25552	1.01374E-07
588.42833	1.01474E-07
588.60114	1.01570E-07
588.77396	1.01666E-07
588.94677	1.01760E-07
589.11958	1.01854E-07
589.29240	1.01947E-07
589.46521	1.02041E-07
589.63802	1.02135E-07
589.81083	1.02231E-07
589.98365	1.02329E-07
590.15646	1.02429E-07
590.32927	1.02533E-07
590.50209	1.02639E-07
590.67490	1.02749E-07
590.84771	1.02864E-07
591.02053	1.02984E-07
591.19334	1.03109E-07
591.36615	1.03240E-07
591.53896	1.03377E-07
591.71178	1.03521E-07
591.88459	1.03671E-07
592.05740	1.03829E-07
592.23022	1.03995E-07
592.40303	1.04168E-07
592.57584	1.04350E-07
592.74866	1.04540E-07
592.92147	1.04739E-07
593.09428	1.04947E-07
593.26710	1.05164E-07
593.43991	1.05391E-07
593.61272	1.05626E-07
593.78553	1.05871E-07
593.95835	1.06125E-07
594.13116	1.06389E-07
594.30397	1.06662E-07
594.47679	1.06944E-07
594.64960	1.07237E-07
594.82241	1.07537E-07
594.99523	1.07847E-07
595.16804	1.08165E-07
595.34085	1.08492E-07
595.51366	1.08826E-07
595.68648	1.09169E-07
595.85929	1.09519E-07
596.03210	1.09876E-07
596.20492	1.10239E-07
596.37773	1.10609E-07
596.55054	1.10984E-07
596.72336	1.11364E-07
596.89617	1.11749E-07
597.06898	1.12138E-07
597.24179	1.12530E-07
597.41461	1.12925E-07
597.58742	1.13322E-07
597.76023	1.13720E-07
597.93305	1.14119E-07
598.10586	1.14518E-07
598.27867	1.14917E-07
598.45149	1.15314E-07
598.62430	1.15708E-07
598.79711	1.16101E-07
598.96992	1.16489E-07
599.14274	1.16873E-07
599.31555	1.17252E-07
599.48836	1.17625E-07
599.66118	1.17993E-07
599.83399	1.18353E-07
600.00680	1.18706E-07
600.17962	1.19051E-07
600.35243	1.19386E-07
600.52524	1.19713E-07
600.69805	1.20030E-07
600.87087	1.20338E-07
601.04368	1.20634E-07
601.21649	1.20920E-07
601.38931	1.21196E-07
601.56212	1.21459E-07
601.73493	1.21712E-07
601.90775	1.21953E-07
602.08056	1.22183E-07
602.25337	1.22401E-07
602.42619	1.22608E-07
602.59900	1.22804E-07
602.77181	1.22989E-07
602.94462	1.23163E-07
603.11744	1.23327E-07
603.29025	1.23481E-07
603.46306	1.23625E-07
603.63588	1.23760E-07
603.80869	1.23886E-07
603.98150	1.24004E-07
604.15432	1.24115E-07
604.32713	1.24219E-07
604.49994	1.24317E-07
604.67275	1.24409E-07
604.84557	1.24497E-07
605.01838	1.24580E-07
605.19119	1.24661E-07
605.36401	1.24740E-07
605.53682	1.24815E-07
605.70963	1.24891E-07
605.88245	1.24967E-07
606.05526	1.25043E-07
606.22807	1.25121E-07
606.40088	1.25201E-07
606.57370	1.25284E-07
606.74651	1.25372E-07
606.91932	1.25463E-07
607.09214	1.25561E-07
607.26495	1.25665E-07
607.43776	1.25775E-07
607.61058	1.25893E-07
607.78339	1.26018E-07
607.95620	1.26153E-07
608.12901	1.26296E-07
608.30183	1.26449E-07
608.47464	1.26612E-07
608.64745	1.26786E-07
608.82027	1.26971E-07
608.99308	1.27167E-07
609.16589	1.27376E-07
609.33871	1.27595E-07
609.51152	1.27827E-07
609.68433	1.28072E-07
609.85714	1.28328E-07
610.02996	1.28598E-07
610.20277	1.28880E-07
610.37558	1.29174E-07
610.54840	1.29481E-07
610.72121	1.29801E-07
610.89402	1.30133E-07
611.06684	1.30476E-07
611.23965	1.30832E-07
611.41246	1.31199E-07
611.58528	1.31576E-07
611.75809	1.31966E-07
611.93090	1.32365E-07
612.10371	1.32774E-07
612.27653	1.33192E-07
612.44934	1.33619E-07
612.62215	1.34054E-07
612.79497	1.34496E-07
612.96778	1.34945E-07
613.14059	1.35401E-07
613.31341	1.35861E-07
613.48622	1.36326E-07
613.65903	1.36795E-07
613.83184	1.37268E-07
614.00466	1.37741E-07
614.17747	1.38217E-07
614.35028	1.38692E-07
614.52310	1.39168E-07
614.69591	1.39642E-07
614.86872	1.40115E-07
615.04154	1.40584E-07
615.21435	1.41050E-07
615.38716	1.41512E-07
615.55997	1.41968E-07
615.73279	1.42418E-07
615.90560	1.42864E-07
616.07841	1.43300E-07
616.25123	1.43730E-07
616.42404	1.44151E-07
616.59685	1.44565E-07
616.76967	1.44968E-07
616.94248	1.45362E-07
617.11529	1.45748E-07
617.28810	1.46123E-07
617.46092	1.46488E-07
617.63373	1.46844E-07
617.80654	1.47189E-07
617.97936	1.47525E-07
618.15217	1.47852E-07
618.32498	1.48167E-07
618.49780	1.48475E-07
618.67061	1.48775E-07
618.84342	1.49066E-07
619.01623	1.49349E-07
619.18905	1.49627E-07
619.36186	1.49897E-07
619.53467	1.50161E-07
619.70749	1.50422E-07
619.88030	1.50679E-07
620.05311	1.50933E-07
620.22593	1.51184E-07
620.39874	1.51436E-07
620.57155	1.51687E-07
620.74437	1.51940E-07
620.91718	1.52194E-07
621.08999	1.52453E-07
621.26280	1.52717E-07
621.43562	1.52986E-07
621.60843	1.53262E-07
621.78124	1.53547E-07
621.95406	1.53841E-07
622.12687	1.54145E-07
622.29968	1.54462E-07
622.47250	1.54791E-07
622.64531	1.55134E-07
622.81812	1.55493E-07
622.99093	1.55867E-07
623.16375	1.56259E-07
623.33656	1.56669E-07
623.50937	1.57099E-07
623.68219	1.57548E-07
623.85500	1.58019E-07
624.02781	1.58511E-07
624.20063	1.59026E-07
624.37344	1.59563E-07
624.54625	1.60125E-07
624.71906	1.60713E-07
624.89188	1.61325E-07
625.06469	1.61962E-07
625.23750	1.62626E-07
625.41032	1.63315E-07
625.58313	1.64031E-07
625.75594	1.64773E-07
625.92876	1.65543E-07
626.10157	1.66338E-07
626.27438	1.67161E-07
626.44719	1.68010E-07
626.62001	1.68884E-07
626.79282	1.69785E-07
626.96563	1.70709E-07
627.13845	1.71658E-07
627.31126	1.72631E-07
627.48407	1.73628E-07
627.65689	1.74645E-07
627.82970	1.75683E-07
628.00251	1.76741E-07
628.17532	1.77817E-07
628.34814	1.78910E-07
628.52095	1.80018E-07
628.69376	1.81140E-07
628.86658	1.82273E-07
629.03939	1.83417E-07
629.21220	1.84568E-07
629.38502	1.85726E-07
629.55783	1.86887E-07
629.73064	1.88050E-07
629.90346	1.89212E-07
630.07627	1.90372E-07
630.24908	1.91525E-07
630.42189	1.92671E-07
630.59471	1.93807E-07
630.76752	1.94930E-07
630.94033	1.96038E-07
631.11315	1.97128E-07
631.28596	1.98199E-07
631.45877	1.99247E-07
631.63159	2.00272E-07
631.80440	2.01269E-07
631.97721	2.02239E-07
632.15002	2.03178E-07
632.32284	2.04086E-07
632.49565	2.04959E-07
632.66846	2.05799E-07
632.84128	2.06602E-07
633.01409	2.07369E-07
633.18690	2.08099E-07
633.35972	2.08790E-07
633.53253	2.09443E-07
633.70534	2.10059E-07
633.87815	2.10637E-07
634.05097	2.11177E-07
634.22378	2.11680E-07
634.39659	2.12147E-07
634.56941	2.12580E-07
634.74222	2.12979E-07
634.91503	2.13347E-07
635.08785	2.13685E-07
635.26066	2.13996E-07
635.43347	2.14281E-07
635.60628	2.14543E-07
635.77910	2.14785E-07
635.95191	2.15008E-07
636.12472	2.15217E-07
636.29754	2.15414E-07
636.47035	2.15601E-07
636.64316	2.15782E-07
636.81598	2.15960E-07
636.98879	2.16138E-07
637.16160	2.16319E-07
637.33441	2.16505E-07
637.50723	2.16702E-07
637.68004	2.16911E-07
637.85285	2.17135E-07
638.02567	2.17378E-07
638.19848	2.17644E-07
638.37129	2.17933E-07
638.54411	2.18251E-07
638.71692	2.18599E-07
638.88973	2.18981E-07
639.06255	2.19398E-07
639.23536	2.19854E-07
639.40817	2.20351E-07
639.58098	2.20891E-07
639.75380	2.21478E-07
639.92661	2.22113E-07
640.09942	2.22798E-07
640.27224	2.23535E-07
640.44505	2.24326E-07
640.61786	2.25174E-07
640.79068	2.26079E-07
640.96349	2.27043E-07
641.13630	2.28067E-07
641.30911	2.29153E-07
641.48193	2.30302E-07
641.65474	2.31515E-07
641.82755	2.32792E-07
642.00037	2.34135E-07
642.17318	2.35543E-07
642.34599	2.37018E-07
642.51881	2.38559E-07
642.69162	2.40167E-07
642.86443	2.41840E-07
643.03724	2.43579E-07
643.21006	2.45383E-07
643.38287	2.47251E-07
643.55568	2.49182E-07
643.72850	2.51174E-07
643.90131	2.53225E-07
644.07412	2.55333E-07
644.24694	2.57497E-07
644.41975	2.59712E-07
644.59256	2.61977E-07
644.76537	2.64289E-07
644.93819	2.66643E-07
645.11100	2.69034E-07
645.28381	2.71460E-07
645.45663	2.73916E-07
645.62944	2.76396E-07
645.80225	2.78896E-07
645.97507	2.81410E-07
646.14788	2.83932E-07
646.32069	2.86456E-07
646.49351	2.88975E-07
646.66632	2.91485E-07
646.83913	2.93976E-07
647.01194	2.96444E-07
647.18476	2.98881E-07
647.35757	3.01280E-07
647.53038	3.03635E-07
647.70320	3.05938E-07
647.87601	3.08184E-07
648.04882	3.10366E-07
648.22164	3.12477E-07
648.39445	3.14512E-07
648.56726	3.16465E-07
648.74007	3.18334E-07
648.91289	3.20111E-07
649.08570	3.21794E-07
649.25851	3.23381E-07
649.43133	3.24867E-07
649.60414	3.26252E-07
649.77695	3.27535E-07
649.94977	3.28715E-07
650.12258	3.29792E-07
650.29539	3.30768E-07
650.46820	3.31645E-07
650.64102	3.32425E-07
650.81383	3.33112E-07
650.98664	3.33709E-07
651.15946	3.34223E-07
651.33227	3.34656E-07
651.50508	3.35015E-07
651.67790	3.35309E-07
651.85071	3.35540E-07
652.02352	3.35718E-07
652.19633	3.35849E-07
652.36915	3.35941E-07
652.54196	3.36002E-07
652.71477	3.36040E-07
652.88759	3.36062E-07
653.06040	3.36078E-07
653.23321	3.36094E-07
653.40603	3.36119E-07
653.57884	3.36161E-07
653.75165	3.36228E-07
653.92446	3.36326E-07
654.09728	3.36464E-07
654.27009	3.36650E-07
654.44290	3.36890E-07
654.61572	3.37191E-07
654.78853	3.37560E-07
654.96134	3.38003E-07
655.13416	3.38526E-07
655.30697	3.39136E-07
655.47978	3.39837E-07
655.65260	3.40636E-07
655.82541	3.41538E-07
655.99822	3.42546E-07
656.17103	3.43667E-07
656.34385	3.44904E-07
656.51666	3.46261E-07
656.68947	3.47742E-07
656.86229	3.49351E-07
657.03510	3.51090E-07
657.20791	3.52962E-07
657.38073	3.54972E-07
657.55354	3.57117E-07
657.72635	3.59404E-07
657.89916	3.61832E-07
658.07198	3.64400E-07
658.24479	3.67112E-07
658.41760	3.69966E-07
658.59042	3.72962E-07
658.76323	3.76097E-07
658.93604	3.79373E-07
659.10886	3.82785E-07
659.28167	3.86330E-07
659.45448	3.90005E-07
659.62729	3.93803E-07
659.80011	3.97723E-07
659.97292	4.01755E-07
660.14573	4.05893E-07
660.31855	4.10128E-07
660.49136	4.14453E-07
660.66417	4.18854E-07
660.83699	4.23324E-07
661.00980	4.27846E-07
661.18261	4.32410E-07
661.35542	4.37001E-07
661.52824	4.41602E-07
661.70105	4.46197E-07
661.87386	4.50771E-07
662.04668	4.55303E-07
662.21949	4.59778E-07
662.39230	4.64172E-07
662.56512	4.68468E-07
662.73793	4.72647E-07
662.91074	4.76688E-07
663.08355	4.80571E-07
663.25637	4.84280E-07
663.42918	4.87792E-07
663.60199	4.91093E-07
663.77481	4.94167E-07
663.94762	4.96999E-07
664.12043	4.99574E-07
664.29325	5.01883E-07
664.46606	5.03916E-07
664.63887	5.05664E-07
664.81169	5.07125E-07
664.98450	5.08294E-07
665.15731	5.09174E-07
665.33012	5.09768E-07
665.50294	5.10079E-07
665.67575	5.10116E-07
665.84856	5.09886E-07
666.02138	5.09406E-07
666.19419	5.08684E-07
666.36700	5.07738E-07
666.53982	5.06586E-07
666.71263	5.05248E-07
666.88544	5.03739E-07
667.05825	5.02083E-07
667.23107	5.00303E-07
667.40388	4.98417E-07
667.57669	4.96449E-07
667.74951	4.94420E-07
667.92232	4.92353E-07
668.09513	4.90271E-07
668.26795	4.88193E-07
668.44076	4.86143E-07
668.61357	4.84137E-07
668.78638	4.82200E-07
668.95920	4.80348E-07
669.13201	4.78602E-07
669.30482	4.76978E-07
669.47764	4.75492E-07
669.65045	4.74163E-07
669.82326	4.73010E-07
669.99608	4.72042E-07
670.16889	4.71277E-07
670.34170	4.70727E-07
670.51451	4.70410E-07
670.68733	4.70337E-07
670.86014	4.70522E-07
671.03295	4.70980E-07
671.20577	4.71719E-07
671.37858	4.72756E-07
671.55139	4.74104E-07
671.72421	4.75774E-07
671.89702	4.77782E-07
672.06983	4.80140E-07
672.24264	4.82860E-07
672.41546	4.85960E-07
672.58827	4.89452E-07
672.76108	4.93354E-07
672.93390	4.97679E-07
673.10671	5.02445E-07
673.27952	5.07669E-07
673.45234	5.13370E-07
673.62515	5.19568E-07
673.79796	5.26280E-07
673.97078	5.33527E-07
674.14359	5.41334E-07
674.31640	5.49718E-07
674.48921	5.58707E-07
674.66203	5.68323E-07
674.83484	5.78590E-07
675.00765	5.89534E-07
675.18047	6.01183E-07
675.35328	6.13561E-07
675.52609	6.26697E-07
675.69891	6.40616E-07
675.87172	6.55346E-07
676.04453	6.70906E-07
676.21734	6.87326E-07
676.39016	7.04621E-07
676.56297	7.22820E-07
676.73578	7.41935E-07
676.90860	7.61972E-07
677.08141	7.82943E-07
677.25422	8.04842E-07
677.42704	8.27672E-07
677.59985	8.51404E-07
677.77266	8.76013E-07
677.94547	9.01463E-07
678.11829	9.27698E-07
678.29110	9.54652E-07
678.46391	9.82235E-07
678.63673	1.01034E-06
678.80954	1.03884E-06
678.98235	1.06760E-06
679.15517	1.09644E-06
679.32798	1.12519E-06
679.50079	1.15362E-06
679.67360	1.18153E-06
679.84642	1.20868E-06
680.01923	1.23480E-06
680.19204	1.25965E-06
680.36486	1.28296E-06
680.53767	1.30449E-06
680.71048	1.32400E-06
680.88330	1.34127E-06
681.05611	1.35610E-06
681.22892	1.36834E-06
681.40173	1.37788E-06
681.57455	1.38463E-06
681.74736	1.38858E-06
681.92017	1.38974E-06
682.09299	1.38820E-06
682.26580	1.38405E-06
682.43861	1.37745E-06
682.61143	1.36860E-06
682.78424	1.35771E-06
682.95705	1.34501E-06
683.12987	1.33077E-06
683.30268	1.31523E-06
683.47549	1.29865E-06
683.64830	1.28128E-06
683.82112	1.26335E-06
683.99393	1.24511E-06
684.16674	1.22674E-06
684.33956	1.20845E-06
684.51237	1.19040E-06
684.68518	1.17274E-06
684.85800	1.15562E-06
685.03081	1.13915E-06
685.20362	1.12343E-06
685.37643	1.10855E-06
685.54925	1.09460E-06
685.72206	1.08162E-06
685.89487	1.06968E-06
686.06769	1.05884E-06
686.24050	1.04911E-06
686.41331	1.04056E-06
686.58613	1.03320E-06
686.75894	1.02709E-06
686.93175	1.02224E-06
687.10456	1.01868E-06
687.27738	1.01646E-06
687.45019	1.01561E-06
687.62300	1.01617E-06
687.79582	1.01817E-06
687.96863	1.02168E-06
688.14144	1.02674E-06
688.31426	1.03341E-06
688.48707	1.04179E-06
688.65988	1.05192E-06
688.83269	1.06391E-06
689.00551	1.07788E-06
689.17832	1.09392E-06
689.35113	1.11216E-06
689.52395	1.13277E-06
689.69676	1.15591E-06
689.86957	1.18177E-06
690.04239	1.21057E-06
690.21520	1.24255E-06
690.38801	1.27799E-06
690.56082	1.31721E-06
690.73364	1.36054E-06
690.90645	1.40841E-06
691.07926	1.46124E-06
691.25208	1.51956E-06
691.42489	1.58393E-06
691.59770	1.65501E-06
691.77052	1.73350E-06
691.94333	1.82022E-06
692.11614	1.91606E-06
692.28896	2.02200E-06
692.46177	2.13909E-06
692.63458	2.26846E-06
692.80739	2.41126E-06
692.98021	2.56861E-06
693.15302	2.74152E-06
693.32583	2.93079E-06
693.49865	3.13675E-06
693.67146	3.35916E-06
693.84427	3.59680E-06
694.01709	3.84727E-06
694.18990	4.10668E-06
694.36271	4.36972E-06
694.53552	4.62970E-06
694.70834	4.87931E-06
694.88115	5.11155E-06
695.05396	5.32082E-06
695.22678	5.50408E-06
695.39959	5.66127E-06
695.57240	5.79533E-06
695.74522	5.91165E-06
695.91803	6.01708E-06
696.09084	6.11921E-06
696.26365	6.22551E-06
696.43647	6.34317E-06
696.60928	6.47853E-06
696.78209	6.63727E-06
696.95491	6.82405E-06
697.12772	7.04212E-06
697.30053	7.29276E-06
697.47335	7.57397E-06
697.64616	7.87810E-06
697.81897	8.18938E-06
697.99178	8.48059E-06
698.16460	8.71196E-06
698.33741	8.83505E-06
698.51022	8.80552E-06
698.68304	8.60043E-06
698.85585	8.23151E-06
699.02866	7.74099E-06
699.20148	7.18467E-06
699.37429	6.61330E-06
699.54710	6.06299E-06
699.71991	5.55438E-06
699.89273	5.09634E-06
700.06554	4.69021E-06
700.23835	4.33329E-06
700.41117	4.02113E-06
700.58398	3.74865E-06
700.75679	3.51093E-06
700.92961	3.30348E-06
701.10242	3.12237E-06
701.27523	2.96417E-06
701.44805	2.82600E-06
701.62086	2.70539E-06
701.79367	2.60028E-06
701.96648	2.50894E-06
702.13930	2.42994E-06
702.31211	2.36207E-06
702.48492	2.30435E-06
702.65774	2.25598E-06
702.83055	2.21627E-06
703.00336	2.18474E-06
703.17618	2.16100E-06
703.34899	2.14476E-06
703.52180	2.13587E-06
703.69461	2.13427E-06
703.86743	2.14001E-06
704.04024	2.15324E-06
704.21305	2.17424E-06
704.38587	2.20340E-06
704.55868	2.24124E-06
704.73149	2.28848E-06
704.90431	2.34596E-06
705.07712	2.41476E-06
705.24993	2.49622E-06
705.42274	2.59194E-06
705.59556	2.70387E-06
705.76837	2.83431E-06
705.94118	2.98603E-06
706.11400	3.16216E-06
706.28681	3.36621E-06
706.45962	3.60175E-06
706.63244	3.87179E-06
706.80525	4.17754E-06
706.97806	4.51606E-06
707.15087	4.87645E-06
707.32369	5.23481E-06
707.49650	5.55072E-06
707.66931	5.77084E-06