Wavenumber	NESR 6.60 cm-1
1019.53296	8.83381E-09
1019.65741	8.82819E-09
1019.78186	8.82054E-09
1019.90631	8.81088E-09
1020.03076	8.79924E-09
1020.15521	8.78567E-09
1020.27966	8.77019E-09
1020.40411	8.75288E-09
1020.52863	8.73377E-09
1020.65308	8.71292E-09
1020.77753	8.69043E-09
1020.90198	8.66636E-09
1021.02643	8.64078E-09
1021.15088	8.61377E-09
1021.27533	8.58543E-09
1021.39978	8.55583E-09
1021.52423	8.52504E-09
1021.64868	8.49317E-09
1021.77313	8.46026E-09
1021.89758	8.42646E-09
1022.02203	8.39176E-09
1022.14648	8.35631E-09
1022.27094	8.32015E-09
1022.39545	8.28334E-09
1022.51990	8.24596E-09
1022.64435	8.20808E-09
1022.76880	8.16974E-09
1022.89325	8.13103E-09
1023.01770	8.09195E-09
1023.14215	8.05259E-09
1023.26660	8.01298E-09
1023.39105	7.97314E-09
1023.51550	7.93315E-09
1023.63995	7.89302E-09
1023.76440	7.85280E-09
1023.88886	7.81251E-09
1024.01331	7.77219E-09
1024.13782	7.73184E-09
1024.26221	7.69153E-09
1024.38672	7.65123E-09
1024.51111	7.61100E-09
1024.63562	7.57083E-09
1024.76001	7.53075E-09
1024.88452	7.49076E-09
1025.00891	7.45090E-09
1025.13342	7.41117E-09
1025.25794	7.37156E-09
1025.38232	7.33210E-09
1025.50684	7.29281E-09
1025.63123	7.25368E-09
1025.75574	7.21472E-09
1025.88013	7.17595E-09
1026.00464	7.13739E-09
1026.12903	7.09898E-09
1026.25354	7.06079E-09
1026.37793	7.02280E-09
1026.50244	6.98502E-09
1026.62683	6.94744E-09
1026.75134	6.91008E-09
1026.87573	6.87293E-09
1027.00024	6.83600E-09
1027.12476	6.79930E-09
1027.24915	6.76281E-09
1027.37366	6.72656E-09
1027.49805	6.69054E-09
1027.62256	6.65475E-09
1027.74695	6.61919E-09
1027.87146	6.58387E-09
1027.99585	6.54877E-09
1028.12036	6.51391E-09
1028.24475	6.47929E-09
1028.36926	6.44490E-09
1028.49365	6.41075E-09
1028.61816	6.37684E-09
1028.74255	6.34315E-09
1028.86707	6.30971E-09
1028.99158	6.27650E-09
1029.11597	6.24353E-09
1029.24048	6.21081E-09
1029.36487	6.17832E-09
1029.48938	6.14607E-09
1029.61377	6.11404E-09
1029.73828	6.08226E-09
1029.86267	6.05071E-09
1029.98718	6.01940E-09
1030.11157	5.98832E-09
1030.23608	5.95748E-09
1030.36047	5.92686E-09
1030.48499	5.89647E-09
1030.60938	5.86632E-09
1030.73389	5.83640E-09
1030.85828	5.80670E-09
1030.98279	5.77723E-09
1031.10730	5.74797E-09
1031.23169	5.71895E-09
1031.35620	5.69015E-09
1031.48059	5.66158E-09
1031.60510	5.63322E-09
1031.72949	5.60508E-09
1031.85400	5.57715E-09
1031.97839	5.54944E-09
1032.10291	5.52193E-09
1032.22730	5.49464E-09
1032.35181	5.46756E-09
1032.47620	5.44069E-09
1032.60071	5.41402E-09
1032.72510	5.38756E-09
1032.84961	5.36130E-09
1032.97412	5.33524E-09
1033.09851	5.30937E-09
1033.22302	5.28369E-09
1033.34741	5.25822E-09
1033.47192	5.23293E-09
1033.59631	5.20783E-09
1033.72083	5.18292E-09
1033.84522	5.15819E-09
1033.96973	5.13364E-09
1034.09412	5.10928E-09
1034.21863	5.08509E-09
1034.34302	5.06107E-09
1034.46753	5.03724E-09
1034.59192	5.01356E-09
1034.71643	4.99006E-09
1034.84094	4.96673E-09
1034.96533	4.94355E-09
1035.08984	4.92055E-09
1035.21423	4.89769E-09
1035.33875	4.87500E-09
1035.46314	4.85246E-09
1035.58765	4.83007E-09
1035.71204	4.80784E-09
1035.83655	4.78575E-09
1035.96094	4.76380E-09
1036.08545	4.74200E-09
1036.20984	4.72034E-09
1036.33435	4.69882E-09
1036.45874	4.67744E-09
1036.58325	4.65619E-09
1036.70776	4.63507E-09
1036.83215	4.61409E-09
1036.95667	4.59323E-09
1037.08106	4.57250E-09
1037.20557	4.55189E-09
1037.32996	4.53141E-09
1037.45447	4.51105E-09
1037.57886	4.49080E-09
1037.70337	4.47067E-09
1037.82776	4.45066E-09
1037.95227	4.43076E-09
1038.07666	4.41098E-09
1038.20117	4.39130E-09
1038.32556	4.37173E-09
1038.45007	4.35227E-09
1038.57459	4.33291E-09
1038.69898	4.31365E-09
1038.82349	4.29450E-09
1038.94788	4.27545E-09
1039.07239	4.25651E-09
1039.19678	4.23765E-09
1039.32129	4.21889E-09
1039.44568	4.20023E-09
1039.57019	4.18167E-09
1039.69458	4.16320E-09
1039.81909	4.14482E-09
1039.94348	4.12653E-09
1040.06799	4.10833E-09
1040.19238	4.09022E-09
1040.31690	4.07220E-09
1040.44141	4.05427E-09
1040.56580	4.03643E-09
1040.69031	4.01867E-09
1040.81470	4.00100E-09
1040.93921	3.98341E-09
1041.06360	3.96591E-09
1041.18811	3.94849E-09
1041.31250	3.93115E-09
1041.43701	3.91390E-09
1041.56140	3.89672E-09
1041.68591	3.87963E-09
1041.81030	3.86263E-09
1041.93481	3.84570E-09
1042.05920	3.82886E-09
1042.18372	3.81209E-09
1042.30823	3.79540E-09
1042.43262	3.77880E-09
1042.55713	3.76227E-09
1042.68152	3.74582E-09
1042.80603	3.72945E-09
1042.93042	3.71317E-09
1043.05493	3.69696E-09
1043.17932	3.68083E-09
1043.30383	3.66478E-09
1043.42822	3.64880E-09
1043.55273	3.63291E-09
1043.67712	3.61710E-09
1043.80164	3.60136E-09
1043.92603	3.58570E-09
1044.05054	3.57013E-09
1044.17505	3.55462E-09
1044.29944	3.53920E-09
1044.42395	3.52386E-09
1044.54834	3.50860E-09
1044.67285	3.49341E-09
1044.79724	3.47831E-09
1044.92175	3.46328E-09
1045.04614	3.44834E-09
1045.17065	3.43347E-09
1045.29504	3.41868E-09
1045.41956	3.40398E-09
1045.54395	3.38935E-09
1045.66846	3.37480E-09
1045.79285	3.36033E-09
1045.91736	3.34594E-09
1046.04187	3.33163E-09
1046.16626	3.31740E-09
1046.29077	3.30325E-09
1046.41516	3.28918E-09
1046.53967	3.27518E-09
1046.66406	3.26127E-09
1046.78857	3.24744E-09
1046.91296	3.23369E-09
1047.03748	3.22001E-09
1047.16187	3.20642E-09
1047.28638	3.19290E-09
1047.41077	3.17947E-09
1047.53528	3.16611E-09
1047.65967	3.15283E-09
1047.78418	3.13962E-09
1047.90869	3.12650E-09
1048.03308	3.11345E-09
1048.15759	3.10049E-09
1048.28198	3.08760E-09
1048.40649	3.07478E-09
1048.53088	3.06205E-09
1048.65540	3.04939E-09
1048.77979	3.03681E-09
1048.90430	3.02431E-09
1049.02869	3.01188E-09
1049.15320	2.99953E-09
1049.27759	2.98725E-09
1049.40210	2.97505E-09
1049.52649	2.96292E-09
1049.65100	2.95087E-09
1049.77551	2.93889E-09
1049.89990	2.92698E-09
1050.02441	2.91515E-09
1050.14880	2.90339E-09
1050.27332	2.89170E-09
1050.39771	2.88008E-09
1050.52222	2.86854E-09
1050.64661	2.85706E-09
1050.77112	2.84566E-09
1050.89551	2.83432E-09
1051.02002	2.82306E-09
1051.14441	2.81186E-09
1051.26892	2.80073E-09
1051.39331	2.78967E-09
1051.51782	2.77868E-09
1051.64233	2.76775E-09
1051.76672	2.75689E-09
1051.89124	2.74609E-09
1052.01563	2.73536E-09
1052.14014	2.72469E-09
1052.26453	2.71409E-09
1052.38904	2.70355E-09
1052.51343	2.69308E-09
1052.63794	2.68266E-09
1052.76233	2.67231E-09
1052.88684	2.66201E-09
1053.01123	2.65179E-09
1053.13574	2.64162E-09
1053.26013	2.63151E-09
1053.38464	2.62145E-09
1053.50903	2.61146E-09
1053.63355	2.60152E-09
1053.75806	2.59164E-09
1053.88245	2.58182E-09
1054.00696	2.57206E-09
1054.13135	2.56235E-09
1054.25586	2.55269E-09
1054.38025	2.54309E-09
1054.50476	2.53355E-09
1054.62915	2.52406E-09
1054.75366	2.51461E-09
1054.87805	2.50524E-09
1055.00256	2.49590E-09
1055.12695	2.48662E-09
1055.25147	2.47739E-09
1055.37585	2.46821E-09
1055.50037	2.45909E-09
1055.62488	2.45001E-09
1055.74927	2.44098E-09
1055.87378	2.43200E-09
1055.99817	2.42308E-09
1056.12268	2.41419E-09
1056.24707	2.40536E-09
1056.37158	2.39658E-09
1056.49597	2.38784E-09
1056.62048	2.37915E-09
1056.74487	2.37051E-09
1056.86939	2.36191E-09
1056.99377	2.35336E-09
1057.11829	2.34486E-09
1057.24268	2.33640E-09
1057.36719	2.32799E-09
1057.49170	2.31962E-09
1057.61609	2.31130E-09
1057.74060	2.30302E-09
1057.86499	2.29478E-09
1057.98950	2.28660E-09
1058.11389	2.27845E-09
1058.23840	2.27035E-09
1058.36279	2.26229E-09
1058.48731	2.25427E-09
1058.61169	2.24630E-09
1058.73621	2.23837E-09
1058.86060	2.23048E-09
1058.98511	2.22264E-09
1059.10950	2.21484E-09
1059.23401	2.20707E-09
1059.35852	2.19935E-09
1059.48291	2.19168E-09
1059.60742	2.18404E-09
1059.73181	2.17644E-09
1059.85632	2.16888E-09
1059.98071	2.16137E-09
1060.10523	2.15390E-09
1060.22961	2.14647E-09
1060.35413	2.13907E-09
1060.47852	2.13172E-09
1060.60303	2.12440E-09
1060.72742	2.11713E-09
1060.85193	2.10990E-09
1060.97632	2.10270E-09
1061.10083	2.09555E-09
1061.22534	2.08843E-09
1061.34973	2.08136E-09
1061.47424	2.07432E-09
1061.59863	2.06732E-09
1061.72315	2.06036E-09
1061.84753	2.05344E-09
1061.97205	2.04655E-09
1062.09644	2.03971E-09
1062.22095	2.03290E-09
1062.34534	2.02613E-09
1062.46985	2.01940E-09
1062.59424	2.01270E-09
1062.71875	2.00604E-09
1062.84314	1.99942E-09
1062.96765	1.99283E-09
1063.09216	1.98628E-09
1063.21655	1.97977E-09
1063.34106	1.97329E-09
1063.46545	1.96685E-09
1063.58997	1.96045E-09
1063.71436	1.95407E-09
1063.83887	1.94774E-09
1063.96326	1.94144E-09
1064.08777	1.93517E-09
1064.21216	1.92894E-09
1064.33667	1.92274E-09
1064.46106	1.91658E-09
1064.58557	1.91046E-09
1064.70996	1.90436E-09
1064.83447	1.89830E-09
1064.95898	1.89227E-09
1065.08337	1.88628E-09
1065.20789	1.88031E-09
1065.33228	1.87439E-09
1065.45679	1.86849E-09
1065.58118	1.86262E-09
1065.70569	1.85679E-09
1065.83008	1.85099E-09
1065.95459	1.84522E-09
1066.07898	1.83948E-09
1066.20349	1.83377E-09
1066.32788	1.82809E-09
1066.45239	1.82244E-09
1066.57678	1.81683E-09
1066.70129	1.81124E-09
1066.82581	1.80568E-09
1066.95020	1.80016E-09
1067.07471	1.79466E-09
1067.19910	1.78919E-09
1067.32361	1.78375E-09
1067.44800	1.77834E-09
1067.57251	1.77295E-09
1067.69690	1.76759E-09
1067.82141	1.76227E-09
1067.94580	1.75697E-09
1068.07031	1.75169E-09
1068.19470	1.74645E-09
1068.31921	1.74123E-09
1068.44360	1.73603E-09
1068.56812	1.73087E-09
1068.69263	1.72573E-09
1068.81702	1.72062E-09
1068.94153	1.71553E-09
1069.06592	1.71046E-09
1069.19043	1.70543E-09
1069.31482	1.70042E-09
1069.43933	1.69543E-09
1069.56372	1.69047E-09
1069.68823	1.68553E-09
1069.81262	1.68062E-09
1069.93713	1.67573E-09
1070.06152	1.67087E-09
1070.18604	1.66603E-09
1070.31043	1.66122E-09
1070.43494	1.65643E-09
1070.55945	1.65166E-09
1070.68384	1.64692E-09
1070.80835	1.64220E-09
1070.93274	1.63751E-09
1071.05725	1.63284E-09
1071.18164	1.62819E-09
1071.30615	1.62357E-09
1071.43054	1.61897E-09
1071.55505	1.61439E-09
1071.67944	1.60983E-09
1071.80396	1.60530E-09
1071.92835	1.60079E-09
1072.05286	1.59631E-09
1072.17725	1.59184E-09
1072.30176	1.58740E-09
1072.42627	1.58299E-09
1072.55066	1.57859E-09
1072.67517	1.57422E-09
1072.79956	1.56987E-09
1072.92407	1.56554E-09
1073.04846	1.56124E-09
1073.17297	1.55696E-09
1073.29736	1.55270E-09
1073.42188	1.54847E-09
1073.54627	1.54425E-09
1073.67078	1.54006E-09
1073.79517	1.53590E-09
1073.91968	1.53175E-09
1074.04407	1.52763E-09
1074.16858	1.52353E-09
1074.29309	1.51945E-09
1074.41748	1.51540E-09
1074.54199	1.51137E-09
1074.66638	1.50736E-09
1074.79089	1.50337E-09
1074.91528	1.49941E-09
1075.03980	1.49546E-09
1075.16419	1.49155E-09
1075.28870	1.48765E-09
1075.41309	1.48378E-09
1075.53760	1.47993E-09
1075.66199	1.47610E-09
1075.78650	1.47229E-09
1075.91089	1.46851E-09
1076.03540	1.46475E-09
1076.15979	1.46101E-09
1076.28430	1.45730E-09
1076.40881	1.45361E-09
1076.53320	1.44994E-09
1076.65772	1.44629E-09
1076.78210	1.44266E-09
1076.90662	1.43906E-09
1077.03101	1.43548E-09
1077.15552	1.43192E-09
1077.27991	1.42839E-09
1077.40442	1.42488E-09
1077.52881	1.42139E-09
1077.65332	1.41792E-09
1077.77771	1.41447E-09
1077.90222	1.41105E-09
1078.02661	1.40765E-09
1078.15112	1.40427E-09
1078.27564	1.40091E-09
1078.40002	1.39758E-09
1078.52454	1.39426E-09
1078.64893	1.39097E-09
1078.77344	1.38770E-09
1078.89783	1.38445E-09
1079.02234	1.38123E-09
1079.14673	1.37802E-09
1079.27124	1.37484E-09
1079.39563	1.37167E-09
1079.52014	1.36853E-09
1079.64453	1.36541E-09
1079.76904	1.36231E-09
1079.89343	1.35923E-09
1080.01794	1.35617E-09
1080.14246	1.35313E-09
1080.26685	1.35011E-09
1080.39136	1.34712E-09
1080.51575	1.34414E-09
1080.64026	1.34118E-09
1080.76465	1.33824E-09
1080.88916	1.33532E-09
1081.01355	1.33243E-09
1081.13806	1.32955E-09
1081.26245	1.32669E-09
1081.38696	1.32384E-09
1081.51135	1.32102E-09
1081.63586	1.31822E-09
1081.76025	1.31543E-09
1081.88477	1.31266E-09
1082.00928	1.30991E-09
1082.13367	1.30718E-09
1082.25818	1.30447E-09
1082.38257	1.30177E-09
1082.50708	1.29909E-09
1082.63147	1.29643E-09
1082.75598	1.29379E-09
1082.88037	1.29116E-09
1083.00488	1.28855E-09
1083.12927	1.28595E-09
1083.25378	1.28337E-09
1083.37817	1.28081E-09
1083.50269	1.27826E-09
1083.62708	1.27573E-09
1083.75159	1.27322E-09
1083.87610	1.27072E-09
1084.00049	1.26823E-09
1084.12500	1.26577E-09
1084.24939	1.26331E-09
1084.37390	1.26087E-09
1084.49829	1.25844E-09
1084.62280	1.25603E-09
1084.74719	1.25364E-09
1084.87170	1.25125E-09
1084.99609	1.24889E-09
1085.12061	1.24653E-09
1085.24500	1.24419E-09
1085.36951	1.24186E-09
1085.49390	1.23954E-09
1085.61841	1.23724E-09
1085.74292	1.23495E-09
1085.86731	1.23268E-09
1085.99182	1.23041E-09
1086.11621	1.22817E-09
1086.24072	1.22593E-09
1086.36511	1.22370E-09
1086.48962	1.22149E-09
1086.61401	1.21929E-09
1086.73853	1.21710E-09
1086.86292	1.21492E-09
1086.98743	1.21276E-09
1087.11182	1.21061E-09
1087.23633	1.20847E-09
1087.36072	1.20634E-09
1087.48523	1.20422E-09
1087.60974	1.20212E-09
1087.73413	1.20002E-09
1087.85864	1.19794E-09
1087.98303	1.19587E-09
1088.10754	1.19381E-09
1088.23193	1.19176E-09
1088.35645	1.18972E-09
1088.48084	1.18770E-09
1088.60535	1.18568E-09
1088.72974	1.18368E-09
1088.85425	1.18169E-09
1088.97864	1.17971E-09
1089.10315	1.17774E-09
1089.22754	1.17578E-09
1089.35205	1.17384E-09
1089.47656	1.17190E-09
1089.60095	1.16998E-09
1089.72546	1.16806E-09
1089.84985	1.16616E-09
1089.97437	1.16427E-09
1090.09876	1.16239E-09
1090.22327	1.16052E-09
1090.34766	1.15867E-09
1090.47217	1.15682E-09
1090.59656	1.15499E-09
1090.72107	1.15316E-09
1090.84546	1.15135E-09
1090.96997	1.14955E-09
1091.09436	1.14776E-09
1091.21887	1.14599E-09
1091.34338	1.14422E-09
1091.46777	1.14246E-09
1091.59229	1.14072E-09
1091.71668	1.13899E-09
1091.84119	1.13727E-09
1091.96558	1.13556E-09
1092.09009	1.13387E-09
1092.21448	1.13218E-09
1092.33899	1.13051E-09
1092.46338	1.12885E-09
1092.58789	1.12720E-09
1092.71228	1.12557E-09
1092.83679	1.12394E-09
1092.96118	1.12233E-09
1093.08569	1.12072E-09
1093.21021	1.11913E-09
1093.33460	1.11756E-09
1093.45911	1.11599E-09
1093.58350	1.11444E-09
1093.70801	1.11290E-09
1093.83240	1.11137E-09
1093.95691	1.10985E-09
1094.08130	1.10834E-09
1094.20581	1.10685E-09
1094.33020	1.10537E-09
1094.45471	1.10390E-09
1094.57910	1.10244E-09
1094.70361	1.10099E-09
1094.82800	1.09956E-09
1094.95252	1.09814E-09
1095.07703	1.09673E-09
1095.20142	1.09533E-09
1095.32593	1.09394E-09
1095.45032	1.09257E-09
1095.57483	1.09120E-09
1095.69922	1.08985E-09
1095.82373	1.08851E-09
1095.94812	1.08719E-09
1096.07263	1.08587E-09
1096.19702	1.08457E-09
1096.32153	1.08327E-09
1096.44592	1.08199E-09
1096.57044	1.08072E-09
1096.69482	1.07946E-09
1096.81934	1.07821E-09
1096.94385	1.07697E-09
1097.06824	1.07575E-09
1097.19275	1.07453E-09
1097.31714	1.07333E-09
1097.44165	1.07214E-09
1097.56604	1.07095E-09
1097.69055	1.06978E-09
1097.81494	1.06862E-09
1097.93945	1.06747E-09
1098.06384	1.06633E-09
1098.18835	1.06519E-09
1098.31274	1.06407E-09
1098.43726	1.06296E-09
1098.56165	1.06186E-09
1098.68616	1.06077E-09
1098.81055	1.05969E-09
1098.93506	1.05862E-09
1099.05957	1.05755E-09
1099.18396	1.05650E-09
1099.30847	1.05545E-09
1099.43286	1.05442E-09
1099.55737	1.05339E-09
1099.68176	1.05237E-09
1099.80627	1.05136E-09
1099.93066	1.05036E-09
1100.05518	1.04937E-09
1100.17957	1.04838E-09
1100.30408	1.04740E-09
1100.42847	1.04643E-09
1100.55298	1.04547E-09
1100.67737	1.04452E-09
1100.80188	1.04357E-09
1100.92639	1.04263E-09
1101.05078	1.04170E-09
1101.17529	1.04078E-09
1101.29968	1.03986E-09
1101.42419	1.03895E-09
1101.54858	1.03805E-09
1101.67310	1.03715E-09
1101.79749	1.03626E-09
1101.92200	1.03538E-09
1102.04639	1.03450E-09
1102.17090	1.03363E-09
1102.29529	1.03277E-09
1102.41980	1.03191E-09
1102.54419	1.03106E-09
1102.66870	1.03021E-09
1102.79321	1.02937E-09
1102.91760	1.02853E-09
1103.04211	1.02770E-09
1103.16650	1.02688E-09
1103.29102	1.02606E-09
1103.41541	1.02525E-09
1103.53992	1.02444E-09
1103.66431	1.02364E-09
1103.78882	1.02284E-09
1103.91321	1.02205E-09
1104.03772	1.02126E-09
1104.16211	1.02047E-09
1104.28662	1.01970E-09
1104.41101	1.01892E-09
1104.53552	1.01816E-09
1104.66003	1.01739E-09
1104.78442	1.01663E-09
1104.90894	1.01588E-09
1105.03333	1.01513E-09
1105.15784	1.01438E-09
1105.28223	1.01364E-09
1105.40674	1.01291E-09
1105.53113	1.01217E-09
1105.65564	1.01145E-09
1105.78003	1.01072E-09
1105.90454	1.01001E-09
1106.02893	1.00929E-09
1106.15344	1.00858E-09
1106.27783	1.00788E-09
1106.40234	1.00718E-09
1106.52686	1.00648E-09
1106.65125	1.00579E-09
1106.77576	1.00510E-09
1106.90015	1.00441E-09
1107.02466	1.00374E-09
1107.14905	1.00306E-09
1107.27356	1.00239E-09
1107.39795	1.00172E-09
1107.52246	1.00106E-09
1107.64685	1.00040E-09
1107.77136	9.99752E-10
1107.89575	9.99103E-10
1108.02026	9.98459E-10
1108.14465	9.97819E-10
1108.26917	9.97183E-10
1108.39368	9.96553E-10
1108.51807	9.95926E-10
1108.64258	9.95305E-10
1108.76697	9.94687E-10
1108.89148	9.94073E-10
1109.01587	9.93465E-10
1109.14038	9.92860E-10
1109.26477	9.92260E-10
1109.38928	9.91664E-10
1109.51367	9.91073E-10
1109.63818	9.90487E-10
1109.76257	9.89905E-10
1109.88709	9.89328E-10
1110.01148	9.88755E-10
1110.13599	9.88187E-10
1110.26050	9.87623E-10
1110.38489	9.87063E-10
1110.50940	9.86508E-10
1110.63379	9.85958E-10
1110.75830	9.85413E-10
1110.88269	9.84871E-10
1111.00720	9.84334E-10
1111.13159	9.83801E-10
1111.25610	9.83273E-10
1111.38049	9.82749E-10
1111.50501	9.82230E-10
1111.62940	9.81714E-10
1111.75391	9.81204E-10
1111.87830	9.80696E-10
1112.00281	9.80195E-10
1112.12732	9.79696E-10
1112.25171	9.79202E-10
1112.37622	9.78712E-10
1112.50061	9.78225E-10
1112.62512	9.77744E-10
1112.74951	9.77265E-10
1112.87402	9.76791E-10
1112.99841	9.76320E-10
1113.12293	9.75853E-10
1113.24731	9.75391E-10
1113.37183	9.74932E-10
1113.49622	9.74476E-10
1113.62073	9.74024E-10
1113.74512	9.73575E-10
1113.86963	9.73130E-10
1113.99414	9.72688E-10
1114.11853	9.72250E-10
1114.24304	9.71814E-10
1114.36743	9.71382E-10
1114.49194	9.70952E-10
1114.61633	9.70526E-10
1114.74085	9.70102E-10
1114.86523	9.69682E-10
1114.98975	9.69264E-10
1115.11414	9.68849E-10
1115.23865	9.68436E-10
1115.36304	9.68027E-10
1115.48755	9.67619E-10
1115.61194	9.67212E-10
1115.73645	9.66809E-10
1115.86096	9.66408E-10
1115.98535	9.66009E-10
1116.10986	9.65612E-10
1116.23425	9.65217E-10
1116.35877	9.64824E-10
1116.48315	9.64433E-10
1116.60767	9.64044E-10
1116.73206	9.63656E-10
1116.85657	9.63270E-10
1116.98096	9.62885E-10
1117.10547	9.62501E-10
1117.22986	9.62119E-10
1117.35437	9.61737E-10
1117.47876	9.61358E-10
1117.60327	9.60979E-10
1117.72778	9.60601E-10
1117.85217	9.60224E-10
1117.97669	9.59849E-10
1118.10107	9.59474E-10
1118.22559	9.59101E-10
1118.34998	9.58728E-10
1118.47449	9.58357E-10
1118.59888	9.57984E-10
1118.72339	9.57614E-10
1118.84778	9.57244E-10
1118.97229	9.56874E-10
1119.09668	9.56505E-10
1119.22119	9.56137E-10
1119.34558	9.55769E-10
1119.47009	9.55402E-10
1119.59448	9.55034E-10
1119.71899	9.54667E-10
1119.84351	9.54301E-10
1119.96790	9.53935E-10
1120.09241	9.53570E-10
1120.21680	9.53205E-10
1120.34131	9.52840E-10
1120.46570	9.52476E-10
1120.59021	9.52113E-10
1120.71460	9.51750E-10
1120.83911	9.51387E-10
1120.96350	9.51024E-10
1121.08801	9.50661E-10
1121.21240	9.50299E-10
1121.33691	9.49938E-10
1121.46130	9.49577E-10
1121.58582	9.49217E-10
1121.71033	9.48857E-10
1121.83472	9.48498E-10
1121.95923	9.48140E-10
1122.08362	9.47782E-10
1122.20813	9.47425E-10
1122.33252	9.47069E-10
1122.45703	9.46713E-10
1122.58142	9.46358E-10
1122.70593	9.46004E-10
1122.83032	9.45650E-10
1122.95483	9.45298E-10
1123.07922	9.44947E-10
1123.20374	9.44596E-10
1123.32813	9.44247E-10
1123.45264	9.43898E-10
1123.57715	9.43551E-10
1123.70154	9.43206E-10
1123.82605	9.42861E-10
1123.95044	9.42517E-10
1124.07495	9.42175E-10
1124.19934	9.41834E-10
1124.32385	9.41495E-10
1124.44824	9.41158E-10
1124.57275	9.40821E-10
1124.69714	9.40486E-10
1124.82166	9.40153E-10
1124.94605	9.39821E-10
1125.07056	9.39491E-10
1125.19495	9.39163E-10
1125.31946	9.38836E-10
1125.44397	9.38511E-10
1125.56836	9.38188E-10
1125.69287	9.37867E-10
1125.81726	9.37548E-10
1125.94177	9.37230E-10
1126.06616	9.36914E-10
1126.19067	9.36601E-10
1126.31506	9.36289E-10
1126.43958	9.35980E-10
1126.56397	9.35673E-10
1126.68848	9.35367E-10
1126.81287	9.35063E-10
1126.93738	9.34762E-10
1127.06177	9.34462E-10
1127.18628	9.34164E-10
1127.31079	9.33869E-10
1127.43518	9.33576E-10
1127.55969	9.33285E-10
1127.68408	9.32995E-10
1127.80859	9.32708E-10
1127.93298	9.32422E-10
1128.05750	9.32139E-10
1128.18189	9.31858E-10
1128.30640	9.31577E-10
1128.43079	9.31300E-10
1128.55530	9.31024E-10
1128.67969	9.30749E-10
1128.80420	9.30477E-10
1128.92859	9.30207E-10
1129.05310	9.29938E-10
1129.17761	9.29671E-10
1129.30200	9.29406E-10
1129.42651	9.29142E-10
1129.55090	9.28880E-10
1129.67542	9.28619E-10
1129.79981	9.28360E-10
1129.92432	9.28101E-10
1130.04871	9.27845E-10
1130.17322	9.27590E-10
1130.29761	9.27336E-10
1130.42212	9.27083E-10
1130.54651	9.26831E-10
1130.67102	9.26579E-10
1130.79541	9.26329E-10
1130.91992	9.26080E-10
1131.04443	9.25832E-10
1131.16882	9.25584E-10
1131.29334	9.25337E-10
1131.41773	9.25091E-10
1131.54224	9.24846E-10
1131.66663	9.24601E-10
1131.79114	9.24358E-10
1131.91553	9.24114E-10
1132.04004	9.23870E-10
1132.16443	9.23627E-10
1132.28894	9.23384E-10
1132.41333	9.23142E-10
1132.53784	9.22899E-10
1132.66223	9.22656E-10
1132.78674	9.22413E-10
1132.91126	9.22171E-10
1133.03565	9.21928E-10
1133.16016	9.21685E-10
1133.28455	9.21442E-10
1133.40906	9.21198E-10
1133.53345	9.20954E-10
1133.65796	9.20709E-10
1133.78235	9.20464E-10
1133.90686	9.20218E-10
1134.03125	9.19973E-10
1134.15576	9.19727E-10
1134.28015	9.19480E-10
1134.40466	9.19233E-10
1134.52905	9.18985E-10
1134.65356	9.18737E-10
1134.77808	9.18488E-10
1134.90247	9.18239E-10
1135.02698	9.17989E-10
1135.15137	9.17738E-10
1135.27588	9.17486E-10
1135.40027	9.17234E-10
1135.52478	9.16981E-10
1135.64917	9.16728E-10
1135.77368	9.16474E-10
1135.89807	9.16219E-10
1136.02258	9.15965E-10
1136.14697	9.15709E-10
1136.27148	9.15452E-10
1136.39587	9.15196E-10
1136.52039	9.14938E-10
1136.64490	9.14680E-10
1136.76929	9.14422E-10
1136.89380	9.14163E-10
1137.01819	9.13904E-10
1137.14270	9.13645E-10
1137.26709	9.13385E-10
1137.39160	9.13126E-10
1137.51599	9.12865E-10
1137.64050	9.12605E-10
1137.76489	9.12345E-10
1137.88940	9.12086E-10
1138.01379	9.11826E-10
1138.13831	9.11566E-10
1138.26270	9.11307E-10
1138.38721	9.11048E-10
1138.51172	9.10788E-10
1138.63611	9.10530E-10
1138.76062	9.10271E-10
1138.88501	9.10013E-10
1139.00952	9.09757E-10
1139.13391	9.09499E-10
1139.25842	9.09244E-10
1139.38281	9.08989E-10
1139.50732	9.08735E-10
1139.63171	9.08483E-10
1139.75623	9.08231E-10
1139.88062	9.07979E-10
1140.00513	9.07730E-10
1140.12952	9.07481E-10
1140.25403	9.07233E-10
1140.37854	9.06988E-10
1140.50293	9.06743E-10
1140.62744	9.06500E-10
1140.75183	9.06258E-10
1140.87634	9.06018E-10
1141.00073	9.05781E-10
1141.12524	9.05545E-10
1141.24963	9.05311E-10
1141.37415	9.05078E-10
1141.49854	9.04847E-10
1141.62305	9.04619E-10
1141.74744	9.04392E-10
1141.87195	9.04167E-10
1141.99634	9.03945E-10
1142.12085	9.03724E-10
1142.24524	9.03506E-10
1142.36975	9.03289E-10
1142.49426	9.03076E-10
1142.61865	9.02865E-10
1142.74316	9.02656E-10
1142.86755	9.02450E-10
1142.99207	9.02245E-10
1143.11646	9.02042E-10
1143.24097	9.01843E-10
1143.36536	9.01645E-10
1143.48987	9.01450E-10
1143.61426	9.01257E-10
1143.73877	9.01066E-10
1143.86316	9.00878E-10
1143.98767	9.00692E-10
1144.11206	9.00510E-10
1144.23657	9.00329E-10
1144.36108	9.00150E-10
1144.48547	8.99974E-10
1144.60999	8.99799E-10
1144.73438	8.99627E-10
1144.85889	8.99457E-10
1144.98328	8.99290E-10
1145.10779	8.99124E-10
1145.23218	8.98961E-10
1145.35669	8.98799E-10
1145.48108	8.98640E-10
1145.60559	8.98483E-10
1145.72998	8.98327E-10
1145.85449	8.98174E-10
1145.97888	8.98022E-10
1146.10339	8.97872E-10
1146.22791	8.97723E-10
1146.35230	8.97576E-10
1146.47681	8.97431E-10
1146.60120	8.97287E-10
1146.72571	8.97145E-10
1146.85010	8.97004E-10
1146.97461	8.96865E-10
1147.09900	8.96726E-10
1147.22351	8.96589E-10
1147.34790	8.96453E-10
1147.47241	8.96318E-10
1147.59680	8.96183E-10
1147.72131	8.96051E-10
1147.84570	8.95918E-10
1147.97022	8.95787E-10
1148.09473	8.95656E-10
1148.21912	8.95527E-10
1148.34363	8.95397E-10
1148.46802	8.95268E-10
1148.59253	8.95140E-10
1148.71692	8.95012E-10
1148.84143	8.94885E-10
1148.96582	8.94758E-10
1149.09033	8.94632E-10
1149.21472	8.94505E-10
1149.33923	8.94379E-10
1149.46362	8.94253E-10
1149.58814	8.94128E-10
1149.71252	8.94002E-10
1149.83704	8.93877E-10
1149.96155	8.93751E-10
1150.08594	8.93626E-10
1150.21045	8.93501E-10
1150.33484	8.93375E-10
1150.45935	8.93249E-10
1150.58374	8.93123E-10
1150.70825	8.92997E-10
1150.83264	8.92871E-10
1150.95715	8.92746E-10
1151.08154	8.92620E-10
1151.20606	8.92493E-10
1151.33044	8.92367E-10
1151.45496	8.92240E-10
1151.57935	8.92114E-10
1151.70386	8.91987E-10
1151.82837	8.91859E-10
1151.95276	8.91733E-10
1152.07727	8.91606E-10
1152.20166	8.91479E-10
1152.32617	8.91352E-10
1152.45056	8.91224E-10
1152.57507	8.91098E-10
1152.69946	8.90971E-10
1152.82398	8.90844E-10
1152.94836	8.90718E-10
1153.07288	8.90592E-10
1153.19727	8.90465E-10
1153.32178	8.90339E-10
1153.44617	8.90214E-10
1153.57068	8.90089E-10
1153.69519	8.89965E-10
1153.81958	8.89841E-10
1153.94409	8.89718E-10
1154.06848	8.89596E-10
1154.19299	8.89475E-10
1154.31738	8.89353E-10
1154.44190	8.89233E-10
1154.56628	8.89114E-10
1154.69080	8.88996E-10
1154.81519	8.88879E-10
1154.93970	8.88763E-10
1155.06409	8.88648E-10
1155.18860	8.88535E-10
1155.31299	8.88422E-10
1155.43750	8.88312E-10
1155.56201	8.88202E-10
1155.68640	8.88094E-10
1155.81091	8.87988E-10
1155.93530	8.87883E-10
1156.05981	8.87780E-10
1156.18420	8.87680E-10
1156.30872	8.87580E-10
1156.43311	8.87483E-10
1156.55762	8.87388E-10
1156.68201	8.87295E-10
1156.80652	8.87203E-10
1156.93091	8.87115E-10
1157.05542	8.87027E-10
1157.17981	8.86943E-10
1157.30432	8.86860E-10
1157.42883	8.86780E-10
1157.55322	8.86701E-10
1157.67773	8.86625E-10
1157.80212	8.86552E-10
1157.92664	8.86480E-10
1158.05103	8.86412E-10
1158.17554	8.86345E-10
1158.29993	8.86281E-10
1158.42444	8.86219E-10
1158.54883	8.86160E-10
1158.67334	8.86102E-10
1158.79773	8.86048E-10
1158.92224	8.85995E-10
1159.04663	8.85945E-10
1159.17114	8.85897E-10
1159.29565	8.85852E-10
1159.42004	8.85808E-10
1159.54456	8.85767E-10
1159.66895	8.85727E-10
1159.79346	8.85690E-10
1159.91785	8.85655E-10
1160.04236	8.85623E-10
1160.16675	8.85592E-10
1160.29126	8.85563E-10
1160.41565	8.85536E-10
1160.54016	8.85511E-10
1160.66455	8.85488E-10
1160.78906	8.85466E-10
1160.91345	8.85447E-10
1161.03796	8.85428E-10
1161.16248	8.85411E-10
1161.28687	8.85395E-10
1161.41138	8.85379E-10
1161.53577	8.85365E-10
1161.66028	8.85352E-10
1161.78467	8.85341E-10
1161.90918	8.85329E-10
1162.03357	8.85319E-10
1162.15808	8.85310E-10
1162.28247	8.85301E-10
1162.40698	8.85292E-10
1162.53137	8.85283E-10
1162.65588	8.85275E-10
1162.78027	8.85266E-10
1162.90479	8.85258E-10
1163.02930	8.85250E-10
1163.15369	8.85241E-10
1163.27820	8.85231E-10
1163.40259	8.85221E-10
1163.52710	8.85210E-10
1163.65149	8.85199E-10
1163.77600	8.85187E-10
1163.90039	8.85174E-10
1164.02490	8.85160E-10
1164.14929	8.85145E-10
1164.27380	8.85127E-10
1164.39819	8.85109E-10
1164.52271	8.85090E-10
1164.64710	8.85069E-10
1164.77161	8.85045E-10
1164.89600	8.85021E-10
1165.02051	8.84994E-10
1165.14502	8.84966E-10
1165.26941	8.84935E-10
1165.39392	8.84903E-10
1165.51831	8.84868E-10
1165.64282	8.84831E-10
1165.76721	8.84791E-10
1165.89172	8.84750E-10
1166.01611	8.84706E-10
1166.14063	8.84659E-10
1166.26502	8.84610E-10
1166.38953	8.84558E-10
1166.51392	8.84504E-10
1166.63843	8.84447E-10
1166.76282	8.84387E-10
1166.88733	8.84324E-10
1167.01184	8.84259E-10
1167.13623	8.84190E-10
1167.26074	8.84120E-10
1167.38513	8.84046E-10
1167.50964	8.83970E-10
1167.63403	8.83891E-10
1167.75855	8.83810E-10
1167.88294	8.83726E-10
1168.00745	8.83639E-10
1168.13184	8.83550E-10
1168.25635	8.83458E-10
1168.38074	8.83364E-10
1168.50525	8.83267E-10
1168.62964	8.83167E-10
1168.75415	8.83066E-10
1168.87866	8.82962E-10
1169.00305	8.82855E-10
1169.12756	8.82747E-10
1169.25195	8.82638E-10
1169.37647	8.82526E-10
1169.50085	8.82412E-10
1169.62537	8.82296E-10
1169.74976	8.82178E-10
1169.87427	8.82060E-10
1169.99866	8.81940E-10
1170.12317	8.81818E-10
1170.24756	8.81695E-10
1170.37207	8.81570E-10
1170.49646	8.81445E-10
1170.62097	8.81320E-10
1170.74548	8.81194E-10
1170.86987	8.81067E-10
1170.99439	8.80939E-10
1171.11877	8.80811E-10
1171.24329	8.80683E-10
1171.36768	8.80554E-10
1171.49219	8.80426E-10
1171.61658	8.80298E-10
1171.74109	8.80170E-10
1171.86548	8.80043E-10
1171.98999	8.79916E-10
1172.11438	8.79790E-10
1172.23889	8.79665E-10
1172.36328	8.79541E-10
1172.48779	8.79418E-10
1172.61231	8.79296E-10
1172.73669	8.79175E-10
1172.86121	8.79056E-10
1172.98560	8.78939E-10
1173.11011	8.78823E-10
1173.23450	8.78708E-10
1173.35901	8.78597E-10
1173.48340	8.78487E-10
1173.60791	8.78379E-10
1173.73230	8.78274E-10
1173.85681	8.78170E-10
1173.98120	8.78069E-10
1174.10571	8.77971E-10
1174.23010	8.77876E-10
1174.35461	8.77783E-10
1174.47913	8.77692E-10
1174.60352	8.77605E-10
1174.72803	8.77521E-10
1174.85242	8.77439E-10
1174.97693	8.77361E-10
1175.10132	8.77285E-10
1175.22583	8.77214E-10
1175.35022	8.77145E-10
1175.47473	8.77079E-10
1175.59912	8.77016E-10
1175.72363	8.76957E-10
1175.84802	8.76901E-10
1175.97253	8.76848E-10
1176.09692	8.76799E-10
1176.22144	8.76753E-10
1176.34595	8.76711E-10
1176.47034	8.76671E-10
1176.59485	8.76635E-10
1176.71924	8.76603E-10
1176.84375	8.76574E-10
1176.96814	8.76547E-10
1177.09265	8.76524E-10
1177.21704	8.76504E-10
1177.34155	8.76487E-10
1177.46594	8.76473E-10
1177.59045	8.76462E-10
1177.71484	8.76454E-10
1177.83936	8.76448E-10
1177.96375	8.76446E-10
1178.08826	8.76446E-10
1178.21277	8.76448E-10
1178.33716	8.76454E-10
1178.46167	8.76462E-10
1178.58606	8.76472E-10
1178.71057	8.76484E-10
1178.83496	8.76498E-10
1178.95947	8.76515E-10
1179.08386	8.76534E-10
1179.20837	8.76554E-10
1179.33276	8.76576E-10
1179.45728	8.76600E-10
1179.58167	8.76625E-10
1179.70618	8.76651E-10
1179.83057	8.76678E-10
1179.95508	8.76707E-10
1180.07959	8.76736E-10
1180.20398	8.76767E-10
1180.32849	8.76798E-10
1180.45288	8.76830E-10
1180.57739	8.76862E-10
1180.70178	8.76895E-10
1180.82629	8.76928E-10
1180.95068	8.76961E-10
1181.07520	8.76994E-10
1181.19959	8.77026E-10
1181.32410	8.77060E-10
1181.44849	8.77092E-10
1181.57300	8.77124E-10
1181.69739	8.77155E-10
1181.82190	8.77186E-10
1181.94641	8.77216E-10
1182.07080	8.77245E-10
1182.19531	8.77273E-10
1182.31970	8.77299E-10
1182.44421	8.77325E-10
1182.56860	8.77349E-10
1182.69312	8.77372E-10
1182.81751	8.77393E-10
1182.94202	8.77413E-10
1183.06641	8.77431E-10
1183.19092	8.77448E-10
1183.31531	8.77462E-10
1183.43982	8.77476E-10
1183.56421	8.77487E-10
1183.68872	8.77496E-10
1183.81323	8.77503E-10
1183.93762	8.77509E-10
1184.06213	8.77512E-10
1184.18652	8.77513E-10
1184.31104	8.77512E-10
1184.43543	8.77508E-10
1184.55994	8.77503E-10
1184.68433	8.77496E-10
1184.80884	8.77486E-10
1184.93323	8.77474E-10
1185.05774	8.77459E-10
1185.18213	8.77442E-10
1185.30664	8.77423E-10
1185.43103	8.77402E-10
1185.55554	8.77379E-10
1185.68005	8.77354E-10
1185.80444	8.77326E-10
1185.92896	8.77297E-10
1186.05335	8.77265E-10
1186.17786	8.77231E-10
1186.30225	8.77196E-10
1186.42676	8.77158E-10
1186.55115	8.77119E-10
1186.67566	8.77078E-10
1186.80005	8.77035E-10
1186.92456	8.76990E-10
1187.04895	8.76945E-10
1187.17346	8.76897E-10
1187.29785	8.76848E-10
1187.42236	8.76798E-10
1187.54675	8.76746E-10
1187.67127	8.76694E-10
1187.79578	8.76639E-10
1187.92017	8.76585E-10
1188.04468	8.76529E-10
1188.16907	8.76473E-10
1188.29358	8.76415E-10
1188.41797	8.76357E-10
1188.54248	8.76299E-10
1188.66687	8.76239E-10
1188.79138	8.76180E-10
1188.91577	8.76121E-10
1189.04028	8.76061E-10
1189.16467	8.76001E-10
1189.28919	8.75941E-10
1189.41357	8.75881E-10
1189.53809	8.75821E-10
1189.66260	8.75762E-10
1189.78699	8.75704E-10
1189.91150	8.75645E-10
1190.03589	8.75587E-10
1190.16040	8.75530E-10
1190.28479	8.75474E-10
1190.40930	8.75418E-10
1190.53369	8.75364E-10
1190.65820	8.75310E-10
1190.78259	8.75257E-10
1190.90710	8.75206E-10
1191.03149	8.75155E-10
1191.15601	8.75107E-10
1191.28040	8.75059E-10
1191.40491	8.75013E-10
1191.52942	8.74968E-10
1191.65381	8.74924E-10
1191.77832	8.74882E-10
1191.90271	8.74843E-10
1192.02722	8.74804E-10
1192.15161	8.74767E-10
1192.27612	8.74732E-10
1192.40051	8.74698E-10
1192.52502	8.74667E-10
1192.64941	8.74637E-10
1192.77393	8.74610E-10
1192.89832	8.74585E-10
1193.02283	8.74561E-10
1193.14722	8.74539E-10
1193.27173	8.74518E-10
1193.39624	8.74500E-10
1193.52063	8.74484E-10
1193.64514	8.74469E-10
1193.76953	8.74457E-10
1193.89404	8.74446E-10
1194.01843	8.74438E-10
1194.14294	8.74431E-10
1194.26733	8.74426E-10
1194.39185	8.74423E-10
1194.51624	8.74421E-10
1194.64075	8.74421E-10
1194.76514	8.74423E-10
1194.88965	8.74426E-10
1195.01404	8.74431E-10
1195.13855	8.74438E-10
1195.26306	8.74446E-10
1195.38745	8.74457E-10
1195.51196	8.74468E-10
1195.63635	8.74481E-10
1195.76086	8.74495E-10
1195.88525	8.74510E-10
1196.00977	8.74527E-10
1196.13416	8.74545E-10
1196.25867	8.74564E-10
1196.38306	8.74584E-10
1196.50757	8.74605E-10
1196.63196	8.74627E-10
1196.75647	8.74649E-10
1196.88086	8.74673E-10
1197.00537	8.74698E-10
1197.12988	8.74723E-10
1197.25427	8.74749E-10
1197.37878	8.74775E-10
1197.50317	8.74803E-10
1197.62769	8.74830E-10
1197.75208	8.74858E-10
1197.87659	8.74886E-10
1198.00098	8.74915E-10
1198.12549	8.74943E-10
1198.24988	8.74972E-10
1198.37439	8.75001E-10
1198.49878	8.75030E-10
1198.62329	8.75059E-10
1198.74768	8.75088E-10
1198.87219	8.75117E-10
1198.99670	8.75146E-10
1199.12109	8.75174E-10
1199.24561	8.75202E-10
1199.37000	8.75230E-10
1199.49451	8.75259E-10
1199.61890	8.75286E-10
1199.74341	8.75312E-10
1199.86780	8.75339E-10
1199.99231	8.75365E-10
1200.11670	8.75391E-10
1200.24121	8.75416E-10
1200.36560	8.75440E-10
1200.49011	8.75465E-10
1200.61450	8.75488E-10
1200.73901	8.75512E-10
1200.86353	8.75534E-10
1200.98792	8.75556E-10
1201.11243	8.75578E-10
1201.23682	8.75599E-10
1201.36133	8.75619E-10
1201.48572	8.75639E-10
1201.61023	8.75658E-10
1201.73462	8.75676E-10
1201.85913	8.75695E-10
1201.98352	8.75712E-10
1202.10803	8.75729E-10
1202.23242	8.75745E-10
1202.35693	8.75761E-10
1202.48132	8.75777E-10
1202.60584	8.75792E-10
1202.73035	8.75806E-10
1202.85474	8.75820E-10
1202.97925	8.75834E-10
1203.10364	8.75848E-10
1203.22815	8.75860E-10
1203.35254	8.75873E-10
1203.47705	8.75886E-10
1203.60144	8.75898E-10
1203.72595	8.75910E-10
1203.85034	8.75922E-10
1203.97485	8.75933E-10
1204.09924	8.75946E-10
1204.22376	8.75957E-10
1204.34815	8.75970E-10
1204.47266	8.75982E-10
1204.59717	8.75994E-10
1204.72156	8.76006E-10
1204.84607	8.76019E-10
1204.97046	8.76031E-10
1205.09497	8.76044E-10
1205.21936	8.76057E-10
1205.34387	8.76070E-10
1205.46826	8.76083E-10
1205.59277	8.76098E-10
1205.71716	8.76112E-10
1205.84168	8.76127E-10
1205.96606	8.76143E-10
1206.09058	8.76159E-10
1206.21497	8.76175E-10
1206.33948	8.76193E-10
1206.46399	8.76211E-10
1206.58838	8.76230E-10
1206.71289	8.76248E-10
1206.83728	8.76268E-10
1206.96179	8.76289E-10
1207.08618	8.76310E-10
1207.21069	8.76331E-10
1207.33508	8.76354E-10
1207.45960	8.76377E-10
1207.58398	8.76401E-10
1207.70850	8.76426E-10
1207.83289	8.76452E-10
1207.95740	8.76479E-10
1208.08179	8.76506E-10
1208.20630	8.76535E-10
1208.33069	8.76563E-10
1208.45520	8.76592E-10
1208.57971	8.76623E-10
1208.70410	8.76653E-10
1208.82861	8.76685E-10
1208.95300	8.76718E-10
1209.07752	8.76751E-10
1209.20190	8.76786E-10
1209.32642	8.76821E-10
1209.45081	8.76857E-10
1209.57532	8.76893E-10
1209.69971	8.76930E-10
1209.82422	8.76967E-10
1209.94861	8.77004E-10
1210.07312	8.77043E-10
1210.19751	8.77082E-10
1210.32202	8.77122E-10
1210.44653	8.77162E-10
1210.57092	8.77203E-10
1210.69544	8.77243E-10
1210.81982	8.77285E-10
1210.94434	8.77327E-10
1211.06873	8.77369E-10
1211.19324	8.77412E-10
1211.31763	8.77455E-10
1211.44214	8.77497E-10
1211.56653	8.77540E-10
1211.69104	8.77583E-10
1211.81543	8.77626E-10
1211.93994	8.77670E-10
1212.06433	8.77713E-10
1212.18884	8.77757E-10
1212.31335	8.77800E-10
1212.43774	8.77843E-10
1212.56226	8.77886E-10
1212.68665	8.77929E-10
1212.81116	8.77972E-10
1212.93555	8.78015E-10
1213.06006	8.78058E-10
1213.18445	8.78100E-10
1213.30896	8.78141E-10
1213.43335	8.78183E-10
1213.55786	8.78224E-10
1213.68225	8.78265E-10
1213.80676	8.78306E-10
1213.93115	8.78346E-10
1214.05566	8.78385E-10
1214.18018	8.78424E-10
1214.30457	8.78463E-10
1214.42908	8.78502E-10
1214.55347	8.78540E-10
1214.67798	8.78577E-10
1214.80237	8.78614E-10
1214.92688	8.78651E-10
1215.05127	8.78687E-10
1215.17578	8.78722E-10
1215.30017	8.78757E-10
1215.42468	8.78791E-10
1215.54907	8.78825E-10
1215.67358	8.78858E-10
1215.79797	8.78890E-10
1215.92249	8.78923E-10
1216.04700	8.78954E-10
1216.17139	8.78986E-10
1216.29590	8.79017E-10
1216.42029	8.79047E-10
1216.54480	8.79078E-10
1216.66919	8.79108E-10
1216.79370	8.79137E-10
1216.91809	8.79167E-10
1217.04260	8.79196E-10
1217.16699	8.79225E-10
1217.29150	8.79253E-10
1217.41589	8.79283E-10
1217.54041	8.79310E-10
1217.66480	8.79338E-10
1217.78931	8.79366E-10
1217.91382	8.79394E-10
1218.03821	8.79422E-10
1218.16272	8.79450E-10
1218.28711	8.79478E-10
1218.41162	8.79506E-10
1218.53601	8.79534E-10
1218.66052	8.79563E-10
1218.78491	8.79592E-10
1218.90942	8.79621E-10
1219.03381	8.79650E-10
1219.15833	8.79681E-10
1219.28272	8.79711E-10
1219.40723	8.79742E-10
1219.53162	8.79774E-10
1219.65613	8.79806E-10
1219.78064	8.79839E-10
1219.90503	8.79873E-10
1220.02954	8.79907E-10
1220.15393	8.79942E-10
1220.27844	8.79977E-10
1220.40283	8.80013E-10
1220.52734	8.80050E-10
1220.65173	8.80088E-10
1220.77625	8.80127E-10
1220.90064	8.80166E-10
1221.02515	8.80207E-10
1221.14954	8.80249E-10
1221.27405	8.80292E-10
1221.39844	8.80336E-10
1221.52295	8.80382E-10
1221.64746	8.80428E-10
1221.77185	8.80476E-10
1221.89636	8.80524E-10
1222.02075	8.80574E-10
1222.14526	8.80625E-10
1222.26965	8.80677E-10
1222.39417	8.80731E-10
1222.51856	8.80786E-10
1222.64307	8.80841E-10
1222.76746	8.80898E-10
1222.89197	8.80956E-10
1223.01636	8.81015E-10
1223.14087	8.81076E-10
1223.26526	8.81138E-10
1223.38977	8.81201E-10
1223.51428	8.81266E-10
1223.63867	8.81331E-10
1223.76318	8.81398E-10
1223.88757	8.81466E-10
1224.01209	8.81536E-10
1224.13648	8.81607E-10
1224.26099	8.81678E-10
1224.38538	8.81751E-10
1224.50989	8.81824E-10
1224.63428	8.81899E-10
1224.75879	8.81974E-10
1224.88318	8.82051E-10
1225.00769	8.82128E-10
1225.13208	8.82207E-10
1225.25659	8.82286E-10
1225.38110	8.82366E-10
1225.50549	8.82447E-10
1225.63001	8.82528E-10
1225.75440	8.82611E-10
1225.87891	8.82694E-10
1226.00330	8.82778E-10
1226.12781	8.82862E-10
1226.25220	8.82946E-10
1226.37671	8.83032E-10
1226.50110	8.83118E-10
1226.62561	8.83204E-10
1226.75000	8.83291E-10
1226.87451	8.83378E-10
1226.99890	8.83465E-10
1227.12341	8.83553E-10
1227.24793	8.83640E-10
1227.37231	8.83728E-10
1227.49683	8.83816E-10
1227.62122	8.83904E-10
1227.74573	8.83992E-10
1227.87012	8.84079E-10
1227.99463	8.84168E-10
1228.11902	8.84255E-10
1228.24353	8.84342E-10
1228.36792	8.84429E-10
1228.49243	8.84516E-10
1228.61682	8.84603E-10
1228.74133	8.84689E-10
1228.86572	8.84775E-10
1228.99023	8.84861E-10
1229.11475	8.84946E-10
1229.23914	8.85031E-10
1229.36365	8.85115E-10
1229.48804	8.85199E-10
1229.61255	8.85283E-10
1229.73694	8.85366E-10
1229.86145	8.85449E-10
1229.98584	8.85531E-10
1230.11035	8.85613E-10
1230.23474	8.85693E-10
1230.35925	8.85775E-10
1230.48364	8.85854E-10
1230.60815	8.85934E-10
1230.73254	8.86013E-10
1230.85706	8.86091E-10
1230.98145	8.86169E-10
1231.10596	8.86247E-10
1231.23047	8.86323E-10
1231.35486	8.86399E-10
1231.47937	8.86474E-10
1231.60376	8.86550E-10
1231.72827	8.86624E-10
1231.85266	8.86698E-10
1231.97717	8.86772E-10
1232.10156	8.86845E-10
1232.22607	8.86918E-10
1232.35046	8.86991E-10
1232.47498	8.87063E-10
1232.59937	8.87134E-10
1232.72388	8.87206E-10
1232.84827	8.87277E-10
1232.97278	8.87349E-10
1233.09729	8.87420E-10
1233.22168	8.87491E-10
1233.34619	8.87562E-10
1233.47058	8.87633E-10
1233.59509	8.87704E-10
1233.71948	8.87776E-10
1233.84399	8.87847E-10
1233.96838	8.87919E-10
1234.09290	8.87991E-10
1234.21729	8.88063E-10
1234.34180	8.88135E-10
1234.46619	8.88208E-10
1234.59070	8.88281E-10
1234.71509	8.88355E-10
1234.83960	8.88428E-10
1234.96411	8.88503E-10
1235.08850	8.88578E-10
1235.21301	8.88653E-10
1235.33740	8.88729E-10
1235.46191	8.88806E-10
1235.58630	8.88884E-10
1235.71082	8.88962E-10
1235.83521	8.89041E-10
1235.95972	8.89121E-10
1236.08411	8.89203E-10
1236.20862	8.89284E-10
1236.33301	8.89367E-10
1236.45752	8.89451E-10
1236.58191	8.89535E-10
1236.70642	8.89621E-10
1236.83093	8.89708E-10
1236.95532	8.89796E-10
1237.07983	8.89886E-10
1237.20422	8.89976E-10
1237.32874	8.90067E-10
1237.45313	8.90159E-10
1237.57764	8.90253E-10
1237.70203	8.90348E-10
1237.82654	8.90444E-10
1237.95093	8.90541E-10
1238.07544	8.90639E-10
1238.19983	8.90739E-10
1238.32434	8.90840E-10
1238.44873	8.90942E-10
1238.57324	8.91045E-10
1238.69775	8.91149E-10
1238.82214	8.91254E-10
1238.94666	8.91362E-10
1239.07105	8.91469E-10
1239.19556	8.91578E-10
1239.31995	8.91688E-10
1239.44446	8.91799E-10
1239.56885	8.91911E-10
1239.69336	8.92025E-10
1239.81775	8.92138E-10
1239.94226	8.92253E-10
1240.06665	8.92369E-10
1240.19116	8.92486E-10
1240.31555	8.92604E-10
1240.44006	8.92722E-10
1240.56458	8.92841E-10
1240.68897	8.92962E-10
1240.81348	8.93082E-10
1240.93787	8.93204E-10
1241.06238	8.93327E-10
1241.18677	8.93449E-10
1241.31128	8.93573E-10
1241.43567	8.93696E-10
1241.56018	8.93820E-10
1241.68457	8.93944E-10
1241.80908	8.94069E-10
1241.93347	8.94195E-10
1242.05798	8.94320E-10
1242.18237	8.94446E-10
1242.30689	8.94570E-10
1242.43140	8.94696E-10
1242.55579	8.94821E-10
1242.68030	8.94946E-10
1242.80469	8.95072E-10
1242.92920	8.95197E-10
1243.05359	8.95323E-10
1243.17810	8.95448E-10
1243.30249	8.95573E-10
1243.42700	8.95697E-10
1243.55139	8.95821E-10
1243.67590	8.95945E-10
1243.80029	8.96069E-10
1243.92481	8.96193E-10
1244.04919	8.96316E-10
1244.17371	8.96438E-10
1244.29822	8.96560E-10
1244.42261	8.96681E-10
1244.54712	8.96801E-10
1244.67151	8.96922E-10
1244.79602	8.97041E-10
1244.92041	8.97161E-10
1245.04492	8.97279E-10
1245.16931	8.97397E-10
1245.29382	8.97514E-10
1245.41821	8.97631E-10
1245.54273	8.97746E-10
1245.66711	8.97862E-10
1245.79163	8.97976E-10
1245.91602	8.98090E-10
1246.04053	8.98203E-10
1246.16504	8.98316E-10
1246.28943	8.98428E-10
1246.41394	8.98540E-10
1246.53833	8.98650E-10
1246.66284	8.98761E-10
1246.78723	8.98871E-10
1246.91174	8.98980E-10
1247.03613	8.99089E-10
1247.16065	8.99197E-10
1247.28503	8.99305E-10
1247.40955	8.99412E-10
1247.53394	8.99519E-10
1247.65845	8.99626E-10
1247.78284	8.99732E-10
1247.90735	8.99838E-10
1248.03186	8.99944E-10
1248.15625	9.00049E-10
1248.28076	9.00154E-10
1248.40515	9.00260E-10
1248.52966	9.00365E-10
1248.65405	9.00470E-10
1248.77856	9.00574E-10
1248.90295	9.00680E-10
1249.02747	9.00785E-10
1249.15186	9.00891E-10
1249.27637	9.00997E-10
1249.40076	9.01103E-10
1249.52527	9.01209E-10
1249.64966	9.01315E-10
1249.77417	9.01422E-10
1249.89868	9.01530E-10
1250.02307	9.01638E-10
1250.14758	9.01746E-10
1250.27197	9.01855E-10
1250.39648	9.01965E-10
1250.52087	9.02075E-10
1250.64539	9.02186E-10
1250.76978	9.02299E-10
1250.89429	9.02412E-10
1251.01868	9.02525E-10
1251.14319	9.02640E-10
1251.26758	9.02755E-10
1251.39209	9.02872E-10
1251.51648	9.02990E-10
1251.64099	9.03109E-10
1251.76550	9.03229E-10
1251.88989	9.03351E-10
1252.01440	9.03473E-10
1252.13879	9.03596E-10
1252.26331	9.03722E-10
1252.38770	9.03848E-10
1252.51221	9.03975E-10
1252.63660	9.04103E-10
1252.76111	9.04233E-10
1252.88550	9.04364E-10
1253.01001	9.04497E-10
1253.13440	9.04631E-10
1253.25891	9.04765E-10
1253.38330	9.04901E-10
1253.50781	9.05039E-10
1253.63220	9.05177E-10
1253.75671	9.05317E-10
1253.88123	9.05458E-10
1254.00562	9.05600E-10
1254.13013	9.05743E-10
1254.25452	9.05888E-10
1254.37903	9.06032E-10
1254.50342	9.06179E-10
1254.62793	9.06327E-10
1254.75232	9.06475E-10
1254.87683	9.06625E-10
1255.00122	9.06776E-10
1255.12573	9.06927E-10
1255.25012	9.07079E-10
1255.37463	9.07232E-10
1255.49902	9.07385E-10
1255.62354	9.07539E-10
1255.74805	9.07694E-10
1255.87244	9.07850E-10
1255.99695	9.08005E-10
1256.12134	9.08162E-10
1256.24585	9.08318E-10
1256.37024	9.08475E-10
1256.49475	9.08632E-10
1256.61914	9.08789E-10
1256.74365	9.08947E-10
1256.86804	9.09104E-10
1256.99255	9.09261E-10
1257.11694	9.09419E-10
1257.24146	9.09576E-10
1257.36585	9.09733E-10
1257.49036	9.09890E-10
1257.61487	9.10046E-10
1257.73926	9.10201E-10
1257.86377	9.10356E-10
1257.98816	9.10510E-10
1258.11267	9.10664E-10
1258.23706	9.10817E-10
1258.36157	9.10969E-10
1258.48596	9.11120E-10
1258.61047	9.11270E-10
1258.73486	9.11419E-10
1258.85938	9.11567E-10
1258.98377	9.11714E-10
1259.10828	9.11860E-10
1259.23267	9.12003E-10
1259.35718	9.12147E-10
1259.48169	9.12288E-10
1259.60608	9.12428E-10
1259.73059	9.12567E-10
1259.85498	9.12703E-10
1259.97949	9.12839E-10
1260.10388	9.12973E-10
1260.22839	9.13105E-10
1260.35278	9.13235E-10
1260.47730	9.13365E-10
1260.60169	9.13491E-10
1260.72620	9.13616E-10
1260.85059	9.13739E-10
1260.97510	9.13861E-10
1261.09949	9.13980E-10
1261.22400	9.14098E-10
1261.34851	9.14213E-10
1261.47290	9.14328E-10
1261.59741	9.14439E-10
1261.72180	9.14549E-10
1261.84631	9.14657E-10
1261.97070	9.14764E-10
1262.09522	9.14868E-10
1262.21960	9.14970E-10
1262.34412	9.15071E-10
1262.46851	9.15169E-10
1262.59302	9.15266E-10
1262.71741	9.15362E-10
1262.84192	9.15455E-10
1262.96631	9.15546E-10
1263.09082	9.15637E-10
1263.21533	9.15725E-10
1263.33972	9.15812E-10
1263.46423	9.15897E-10
1263.58862	9.15981E-10
1263.71314	9.16063E-10
1263.83752	9.16143E-10
1263.96204	9.16223E-10
1264.08643	9.16301E-10
1264.21094	9.16378E-10
1264.33533	9.16453E-10
1264.45984	9.16527E-10
1264.58423	9.16600E-10
1264.70874	9.16672E-10
1264.83313	9.16744E-10
1264.95764	9.16814E-10
1265.08215	9.16883E-10
1265.20654	9.16952E-10
1265.33106	9.17020E-10
1265.45544	9.17087E-10
1265.57996	9.17153E-10
1265.70435	9.17219E-10
1265.82886	9.17285E-10
1265.95325	9.17351E-10
1266.07776	9.17415E-10
1266.20215	9.17479E-10
1266.32666	9.17543E-10
1266.45105	9.17607E-10
1266.57556	9.17671E-10
1266.69995	9.17734E-10
1266.82446	9.17798E-10
1266.94898	9.17862E-10
1267.07336	9.17925E-10
1267.19788	9.17988E-10
1267.32227	9.18052E-10
1267.44678	9.18117E-10
1267.57117	9.18181E-10
1267.69568	9.18245E-10
1267.82007	9.18310E-10
1267.94458	9.18376E-10
1268.06897	9.18442E-10
1268.19348	9.18508E-10
1268.31787	9.18575E-10
1268.44238	9.18643E-10
1268.56677	9.18711E-10
1268.69128	9.18779E-10
1268.81580	9.18848E-10
1268.94019	9.18918E-10
1269.06470	9.18988E-10
1269.18909	9.19059E-10
1269.31360	9.19130E-10
1269.43799	9.19202E-10
1269.56250	9.19275E-10
1269.68689	9.19348E-10
1269.81140	9.19421E-10
1269.93579	9.19495E-10
1270.06030	9.19569E-10
1270.18469	9.19644E-10
1270.30920	9.19720E-10
1270.43359	9.19796E-10
1270.55811	9.19873E-10
1270.68262	9.19950E-10
1270.80701	9.20028E-10
1270.93152	9.20106E-10
1271.05591	9.20184E-10
1271.18042	9.20264E-10
1271.30481	9.20343E-10
1271.42932	9.20423E-10
1271.55371	9.20502E-10
1271.67822	9.20582E-10
1271.80261	9.20662E-10
1271.92712	9.20743E-10
1272.05151	9.20823E-10
1272.17603	9.20902E-10
1272.30042	9.20983E-10
1272.42493	9.21063E-10
1272.54944	9.21143E-10
1272.67383	9.21223E-10
1272.79834	9.21303E-10
1272.92273	9.21382E-10
1273.04724	9.21461E-10
1273.17163	9.21540E-10
1273.29614	9.21618E-10
1273.42053	9.21695E-10
1273.54504	9.21773E-10
1273.66943	9.21849E-10
1273.79395	9.21925E-10
1273.91834	9.22001E-10
1274.04285	9.22076E-10
1274.16724	9.22149E-10
1274.29175	9.22221E-10
1274.41626	9.22294E-10
1274.54065	9.22365E-10
1274.66516	9.22435E-10
1274.78955	9.22504E-10
1274.91406	9.22573E-10
1275.03845	9.22640E-10
1275.16296	9.22706E-10
1275.28735	9.22771E-10
1275.41187	9.22836E-10
1275.53626	9.22899E-10
1275.66077	9.22960E-10
1275.78516	9.23021E-10
1275.90967	9.23081E-10
1276.03406	9.23139E-10
1276.15857	9.23196E-10
1276.28296	9.23253E-10
1276.40747	9.23308E-10
1276.53198	9.23362E-10
1276.65637	9.23415E-10
1276.78088	9.23467E-10
1276.90527	9.23518E-10
1277.02979	9.23567E-10
1277.15418	9.23616E-10
1277.27869	9.23663E-10
1277.40308	9.23710E-10
1277.52759	9.23755E-10
1277.65198	9.23800E-10
1277.77649	9.23843E-10
1277.90088	9.23886E-10
1278.02539	9.23927E-10
1278.14978	9.23968E-10
1278.27429	9.24009E-10
1278.39880	9.24048E-10
1278.52319	9.24087E-10
1278.64771	9.24126E-10
1278.77210	9.24164E-10
1278.89661	9.24202E-10
1279.02100	9.24240E-10
1279.14551	9.24276E-10
1279.26990	9.24313E-10
1279.39441	9.24350E-10
1279.51880	9.24387E-10
1279.64331	9.24424E-10
1279.76770	9.24460E-10
1279.89221	9.24496E-10
1280.01660	9.24534E-10
1280.14111	9.24572E-10
1280.26563	9.24609E-10
1280.39002	9.24647E-10
1280.51453	9.24686E-10
1280.63892	9.24725E-10
1280.76343	9.24765E-10
1280.88782	9.24806E-10
1281.01233	9.24847E-10
1281.13672	9.24890E-10
1281.26123	9.24933E-10
1281.38562	9.24977E-10
1281.51013	9.25023E-10
1281.63452	9.25070E-10
1281.75903	9.25118E-10
1281.88342	9.25168E-10
1282.00794	9.25219E-10
1282.13245	9.25272E-10
1282.25684	9.25327E-10
1282.38135	9.25383E-10
1282.50574	9.25440E-10
1282.63025	9.25501E-10
1282.75464	9.25561E-10
1282.87915	9.25625E-10
1283.00354	9.25689E-10
1283.12805	9.25757E-10
1283.25244	9.25825E-10
1283.37695	9.25896E-10
1283.50134	9.25969E-10
1283.62585	9.26045E-10
1283.75024	9.26121E-10
1283.87476	9.26201E-10
1283.99927	9.26283E-10
1284.12366	9.26367E-10
1284.24817	9.26453E-10
1284.37256	9.26541E-10
1284.49707	9.26631E-10
1284.62146	9.26724E-10
1284.74597	9.26819E-10
1284.87036	9.26917E-10
1284.99487	9.27016E-10
1285.11926	9.27118E-10
1285.24377	9.27221E-10
1285.36816	9.27327E-10
1285.49268	9.27435E-10
1285.61707	9.27545E-10
1285.74158	9.27657E-10
1285.86609	9.27770E-10
1285.99048	9.27886E-10
1286.11499	9.28003E-10
1286.23938	9.28123E-10
1286.36389	9.28244E-10
1286.48828	9.28367E-10
1286.61279	9.28492E-10
1286.73718	9.28618E-10
1286.86169	9.28746E-10
1286.98608	9.28875E-10
1287.11060	9.29006E-10
1287.23499	9.29138E-10
1287.35950	9.29271E-10
1287.48389	9.29404E-10
1287.60840	9.29539E-10
1287.73291	9.29675E-10
1287.85730	9.29812E-10
1287.98181	9.29950E-10
1288.10620	9.30089E-10
1288.23071	9.30228E-10
1288.35510	9.30368E-10
1288.47961	9.30508E-10
1288.60400	9.30649E-10
1288.72852	9.30790E-10
1288.85291	9.30930E-10
1288.97742	9.31072E-10
1289.10181	9.31213E-10
1289.22632	9.31354E-10
1289.35071	9.31495E-10
1289.47522	9.31635E-10
1289.59973	9.31775E-10
1289.72412	9.31915E-10
1289.84863	9.32054E-10
1289.97302	9.32192E-10
1290.09753	9.32329E-10
1290.22192	9.32466E-10
1290.34644	9.32603E-10
1290.47083	9.32736E-10
1290.59534	9.32870E-10
1290.71973	9.33002E-10
1290.84424	9.33133E-10
1290.96863	9.33263E-10
1291.09314	9.33392E-10
1291.21753	9.33520E-10
1291.34204	9.33645E-10
1291.46655	9.33769E-10
1291.59094	9.33891E-10
1291.71545	9.34013E-10
1291.83984	9.34133E-10
1291.96436	9.34250E-10
1292.08875	9.34366E-10
1292.21326	9.34481E-10
1292.33765	9.34593E-10
1292.46216	9.34705E-10
1292.58655	9.34813E-10
1292.71106	9.34920E-10
1292.83545	9.35025E-10
1292.95996	9.35129E-10
1293.08435	9.35230E-10
1293.20886	9.35330E-10
1293.33337	9.35428E-10
1293.45776	9.35523E-10
1293.58228	9.35619E-10
1293.70667	9.35711E-10
1293.83118	9.35802E-10
1293.95557	9.35892E-10
1294.08008	9.35980E-10
1294.20447	9.36066E-10
1294.32898	9.36150E-10
1294.45337	9.36233E-10
1294.57788	9.36315E-10
1294.70227	9.36395E-10
1294.82678	9.36473E-10
1294.95117	9.36551E-10
1295.07568	9.36627E-10
1295.20020	9.36702E-10
1295.32459	9.36776E-10
1295.44910	9.36849E-10
1295.57349	9.36921E-10
1295.69800	9.36992E-10
1295.82239	9.37063E-10
1295.94690	9.37133E-10
1296.07129	9.37202E-10
1296.19580	9.37270E-10
1296.32019	9.37339E-10
1296.44470	9.37407E-10
1296.56909	9.37475E-10
1296.69360	9.37542E-10
1296.81799	9.37609E-10
1296.94251	9.37677E-10
1297.06690	9.37745E-10
1297.19141	9.37813E-10
1297.31592	9.37881E-10
1297.44031	9.37950E-10
1297.56482	9.38018E-10
1297.68921	9.38088E-10
1297.81372	9.38158E-10
1297.93811	9.38229E-10
1298.06262	9.38301E-10
1298.18701	9.38373E-10
1298.31152	9.38448E-10
1298.43591	9.38522E-10
1298.56043	9.38599E-10
1298.68481	9.38676E-10
1298.80933	9.38755E-10
1298.93372	9.38836E-10
1299.05823	9.38918E-10
1299.18274	9.39001E-10
1299.30713	9.39086E-10
1299.43164	9.39172E-10
1299.55603	9.39260E-10
1299.68054	9.39351E-10
1299.80493	9.39443E-10
1299.92944	9.39537E-10
1300.05383	9.39632E-10
1300.17835	9.39731E-10
1300.30273	9.39831E-10
1300.42725	9.39933E-10
1300.55164	9.40036E-10
1300.67615	9.40143E-10
1300.80054	9.40251E-10
1300.92505	9.40362E-10
1301.04956	9.40474E-10
1301.17395	9.40588E-10
1301.29846	9.40705E-10
1301.42285	9.40824E-10
1301.54736	9.40945E-10
1301.67175	9.41068E-10
1301.79627	9.41193E-10
1301.92065	9.41321E-10
1302.04517	9.41451E-10
1302.16956	9.41582E-10
1302.29407	9.41716E-10
1302.41846	9.41851E-10
1302.54297	9.41988E-10
1302.66736	9.42128E-10
1302.79187	9.42269E-10
1302.91638	9.42412E-10
1303.04077	9.42557E-10
1303.16528	9.42704E-10
1303.28967	9.42852E-10
1303.41419	9.43003E-10
1303.53857	9.43154E-10
1303.66309	9.43307E-10
1303.78748	9.43461E-10
1303.91199	9.43617E-10
1304.03638	9.43774E-10
1304.16089	9.43932E-10
1304.28528	9.44091E-10
1304.40979	9.44251E-10
1304.53418	9.44412E-10
1304.65869	9.44574E-10
1304.78320	9.44737E-10
1304.90759	9.44900E-10
1305.03210	9.45064E-10
1305.15649	9.45228E-10
1305.28101	9.45393E-10
1305.40540	9.45557E-10
1305.52991	9.45723E-10
1305.65430	9.45888E-10
1305.77881	9.46053E-10
1305.90320	9.46219E-10
1306.02771	9.46384E-10
1306.15210	9.46549E-10
1306.27661	9.46714E-10
1306.40100	9.46878E-10
1306.52551	9.47041E-10
1306.65002	9.47204E-10
1306.77441	9.47367E-10
1306.89893	9.47529E-10
1307.02332	9.47690E-10
1307.14783	9.47850E-10
1307.27222	9.48009E-10
1307.39673	9.48166E-10
1307.52112	9.48324E-10
1307.64563	9.48479E-10
1307.77002	9.48633E-10
1307.89453	9.48786E-10
1308.01892	9.48938E-10
1308.14343	9.49088E-10
1308.26782	9.49236E-10
1308.39233	9.49384E-10
1308.51685	9.49530E-10
1308.64124	9.49674E-10
1308.76575	9.49816E-10
1308.89014	9.49957E-10
1309.01465	9.50096E-10
1309.13904	9.50232E-10
1309.26355	9.50368E-10
1309.38794	9.50501E-10
1309.51245	9.50634E-10
1309.63684	9.50763E-10
1309.76135	9.50891E-10
1309.88574	9.51016E-10
1310.01025	9.51140E-10
1310.13464	9.51262E-10
1310.25916	9.51381E-10
1310.38367	9.51499E-10
1310.50806	9.51615E-10
1310.63257	9.51728E-10
1310.75696	9.51841E-10
1310.88147	9.51951E-10
1311.00586	9.52060E-10
1311.13037	9.52166E-10
1311.25476	9.52271E-10
1311.37927	9.52374E-10
1311.50366	9.52475E-10
1311.62817	9.52574E-10
1311.75256	9.52672E-10
1311.87708	9.52767E-10
1312.00147	9.52861E-10
1312.12598	9.52953E-10
1312.25049	9.53044E-10
1312.37488	9.53132E-10
1312.49939	9.53220E-10
1312.62378	9.53306E-10
1312.74829	9.53390E-10
1312.87268	9.53474E-10
1312.99719	9.53555E-10
1313.12158	9.53635E-10
1313.24609	9.53715E-10
1313.37048	9.53792E-10
1313.49500	9.53869E-10
1313.61939	9.53945E-10
1313.74390	9.54020E-10
1313.86829	9.54094E-10
1313.99280	9.54167E-10
1314.11731	9.54240E-10
1314.24170	9.54312E-10
1314.36621	9.54383E-10
1314.49060	9.54453E-10
1314.61511	9.54522E-10
1314.73950	9.54591E-10
1314.86401	9.54658E-10
1314.98840	9.54726E-10
1315.11292	9.54792E-10
1315.23731	9.54858E-10
1315.36182	9.54924E-10
1315.48621	9.54991E-10
1315.61072	9.55057E-10
1315.73511	9.55123E-10
1315.85962	9.55188E-10
1315.98413	9.55253E-10
1316.10852	9.55318E-10
1316.23303	9.55383E-10
1316.35742	9.55448E-10
1316.48193	9.55512E-10
1316.60632	9.55577E-10
1316.73084	9.55642E-10
1316.85523	9.55707E-10
1316.97974	9.55771E-10
1317.10413	9.55837E-10
1317.22864	9.55901E-10
1317.35303	9.55966E-10
1317.47754	9.56032E-10
1317.60193	9.56097E-10
1317.72644	9.56163E-10
1317.85095	9.56229E-10
1317.97534	9.56295E-10
1318.09985	9.56362E-10
1318.22424	9.56428E-10
1318.34876	9.56495E-10
1318.47315	9.56561E-10
1318.59766	9.56629E-10
1318.72205	9.56695E-10
1318.84656	9.56762E-10
1318.97095	9.56830E-10
1319.09546	9.56897E-10
1319.21985	9.56965E-10
1319.34436	9.57033E-10
1319.46875	9.57101E-10
1319.59326	9.57169E-10
1319.71765	9.57237E-10
1319.84216	9.57306E-10
1319.96668	9.57374E-10
1320.09106	9.57443E-10
1320.21558	9.57513E-10
1320.33997	9.57581E-10
1320.46448	9.57651E-10
1320.58887	9.57720E-10
1320.71338	9.57789E-10
1320.83777	9.57858E-10
1320.96228	9.57928E-10
1321.08667	9.57997E-10
1321.21118	9.58067E-10
1321.33557	9.58136E-10
1321.46008	9.58205E-10
1321.58447	9.58274E-10
1321.70898	9.58343E-10
1321.83350	9.58413E-10
1321.95789	9.58482E-10
1322.08240	9.58550E-10
1322.20679	9.58619E-10
1322.33130	9.58688E-10
1322.45569	9.58757E-10
1322.58020	9.58826E-10
1322.70459	9.58894E-10
1322.82910	9.58962E-10
1322.95349	9.59030E-10
1323.07800	9.59098E-10
1323.20239	9.59165E-10
1323.32690	9.59234E-10
1323.45129	9.59301E-10
1323.57581	9.59369E-10
1323.70032	9.59436E-10
1323.82471	9.59504E-10
1323.94922	9.59571E-10
1324.07361	9.59638E-10
1324.19812	9.59706E-10
1324.32251	9.59773E-10
1324.44702	9.59839E-10
1324.57141	9.59907E-10
1324.69592	9.59974E-10
1324.82031	9.60040E-10
1324.94482	9.60109E-10
1325.06921	9.60176E-10
1325.19373	9.60243E-10
1325.31812	9.60311E-10
1325.44263	9.60378E-10
1325.56714	9.60445E-10
1325.69153	9.60514E-10
1325.81604	9.60583E-10
1325.94043	9.60652E-10
1326.06494	9.60721E-10
1326.18933	9.60789E-10
1326.31384	9.60859E-10
1326.43823	9.60929E-10
1326.56274	9.61000E-10
1326.68713	9.61070E-10
1326.81165	9.61142E-10
1326.93604	9.61213E-10
1327.06055	9.61285E-10
1327.18494	9.61357E-10
1327.30945	9.61431E-10
1327.43396	9.61504E-10
1327.55835	9.61579E-10
1327.68286	9.61655E-10
1327.80725	9.61731E-10
1327.93176	9.61807E-10
1328.05615	9.61886E-10
1328.18066	9.61965E-10
1328.30505	9.62045E-10
1328.42957	9.62125E-10
1328.55396	9.62208E-10
1328.67847	9.62290E-10
1328.80286	9.62375E-10
1328.92737	9.62460E-10
1329.05176	9.62546E-10
1329.17627	9.62634E-10
1329.30078	9.62722E-10
1329.42517	9.62811E-10
1329.54968	9.62902E-10
1329.67407	9.62996E-10
1329.79858	9.63090E-10
1329.92297	9.63185E-10
1330.04749	9.63281E-10
1330.17188	9.63380E-10
1330.29639	9.63480E-10
1330.42078	9.63581E-10
1330.54529	9.63683E-10
1330.66968	9.63787E-10
1330.79419	9.63893E-10
1330.91858	9.64000E-10
1331.04309	9.64108E-10
1331.16760	9.64219E-10
1331.29199	9.64330E-10
1331.41650	9.64443E-10
1331.54089	9.64558E-10
1331.66541	9.64675E-10
1331.78980	9.64792E-10
1331.91431	9.64911E-10
1332.03870	9.65032E-10
1332.16321	9.65154E-10
1332.28760	9.65279E-10
1332.41211	9.65404E-10
1332.53650	9.65531E-10
1332.66101	9.65659E-10
1332.78540	9.65789E-10
1332.90991	9.65920E-10
1333.03442	9.66053E-10
1333.15881	9.66187E-10
1333.28333	9.66323E-10
1333.40772	9.66460E-10
1333.53223	9.66598E-10
1333.65662	9.66738E-10
1333.78113	9.66879E-10
1333.90552	9.67022E-10
1334.03003	9.67166E-10
1334.15442	9.67310E-10
1334.27893	9.67456E-10
1334.40332	9.67604E-10
1334.52783	9.67752E-10
1334.65222	9.67902E-10
1334.77673	9.68052E-10
1334.90125	9.68204E-10
1335.02564	9.68357E-10
1335.15015	9.68510E-10
1335.27454	9.68665E-10
1335.39905	9.68820E-10
1335.52344	9.68977E-10
1335.64795	9.69134E-10
1335.77234	9.69293E-10
1335.89685	9.69452E-10
1336.02124	9.69612E-10
1336.14575	9.69773E-10
1336.27014	9.69933E-10
1336.39465	9.70095E-10
1336.51904	9.70256E-10
1336.64356	9.70420E-10
1336.76807	9.70582E-10
1336.89246	9.70747E-10
1337.01697	9.70911E-10
1337.14136	9.71076E-10
1337.26587	9.71241E-10
1337.39026	9.71406E-10
1337.51477	9.71572E-10
1337.63916	9.71738E-10
1337.76367	9.71904E-10
1337.88806	9.72071E-10
1338.01257	9.72238E-10
1338.13696	9.72404E-10
1338.26148	9.72571E-10
1338.38586	9.72737E-10
1338.51038	9.72904E-10
1338.63489	9.73071E-10
1338.75928	9.73239E-10
1338.88379	9.73406E-10
1339.00818	9.73573E-10
1339.13269	9.73740E-10
1339.25708	9.73908E-10
1339.38159	9.74074E-10
1339.50598	9.74241E-10
1339.63049	9.74408E-10
1339.75488	9.74574E-10
1339.87940	9.74741E-10
1340.00378	9.74907E-10
1340.12830	9.75074E-10
1340.25269	9.75239E-10
1340.37720	9.75405E-10
1340.50171	9.75570E-10
1340.62610	9.75736E-10
1340.75061	9.75901E-10
1340.87500	9.76065E-10
1340.99951	9.76230E-10
1341.12390	9.76394E-10
1341.24841	9.76557E-10
1341.37280	9.76721E-10
1341.49731	9.76884E-10
1341.62170	9.77047E-10
1341.74622	9.77209E-10
1341.87061	9.77371E-10
1341.99512	9.77533E-10
1342.11951	9.77694E-10
1342.24402	9.77855E-10
1342.36841	9.78016E-10
1342.49292	9.78176E-10
1342.61743	9.78336E-10
1342.74182	9.78495E-10
1342.86633	9.78653E-10
1342.99072	9.78811E-10
1343.11523	9.78969E-10
1343.23962	9.79126E-10
1343.36414	9.79282E-10
1343.48853	9.79438E-10
1343.61304	9.79594E-10
1343.73743	9.79749E-10
1343.86194	9.79903E-10
1343.98633	9.80056E-10
1344.11084	9.80209E-10
1344.23523	9.80362E-10
1344.35974	9.80513E-10
1344.48425	9.80664E-10
1344.60864	9.80814E-10
1344.73315	9.80963E-10
1344.85754	9.81112E-10
1344.98206	9.81258E-10
1345.10645	9.81406E-10
1345.23096	9.81551E-10
1345.35535	9.81696E-10
1345.47986	9.81841E-10
1345.60425	9.81984E-10
1345.72876	9.82126E-10
1345.85315	9.82268E-10
1345.97766	9.82408E-10
1346.10205	9.82547E-10
1346.22656	9.82685E-10
1346.35107	9.82821E-10
1346.47546	9.82957E-10
1346.59998	9.83091E-10
1346.72437	9.83224E-10
1346.84888	9.83356E-10
1346.97327	9.83487E-10
1347.09778	9.83618E-10
1347.22217	9.83746E-10
1347.34668	9.83873E-10
1347.47107	9.83999E-10
1347.59558	9.84124E-10
1347.71997	9.84247E-10
1347.84448	9.84368E-10
1347.96887	9.84489E-10
1348.09338	9.84608E-10
1348.21790	9.84726E-10
1348.34229	9.84842E-10
1348.46680	9.84957E-10
1348.59119	9.85071E-10
1348.71570	9.85182E-10
1348.84009	9.85294E-10
1348.96460	9.85403E-10
1349.08899	9.85510E-10
1349.21350	9.85617E-10
1349.33789	9.85721E-10
1349.46240	9.85825E-10
1349.58679	9.85927E-10
1349.71130	9.86027E-10
1349.83569	9.86127E-10
1349.96021	9.86226E-10
1350.08472	9.86323E-10
1350.20911	9.86417E-10
1350.33362	9.86511E-10
1350.45801	9.86603E-10
1350.58252	9.86695E-10
1350.70691	9.86784E-10
1350.83142	9.86873E-10
1350.95581	9.86960E-10
1351.08032	9.87045E-10
1351.20471	9.87130E-10
1351.32922	9.87214E-10
1351.45361	9.87297E-10
1351.57813	9.87378E-10
1351.70252	9.87459E-10
1351.82703	9.87538E-10
1351.95154	9.87617E-10
1352.07593	9.87695E-10
1352.20044	9.87772E-10
1352.32483	9.87849E-10
1352.44934	9.87924E-10
1352.57373	9.87998E-10
1352.69824	9.88073E-10
1352.82263	9.88147E-10
1352.94714	9.88221E-10
1353.07153	9.88294E-10
1353.19605	9.88367E-10
1353.32044	9.88440E-10
1353.44495	9.88513E-10
1353.56934	9.88586E-10
1353.69385	9.88658E-10
1353.81836	9.88730E-10
1353.94275	9.88803E-10
1354.06726	9.88876E-10
1354.19165	9.88949E-10
1354.31616	9.89023E-10
1354.44055	9.89098E-10
1354.56506	9.89172E-10
1354.68945	9.89248E-10
1354.81397	9.89324E-10
1354.93835	9.89401E-10
1355.06287	9.89478E-10
1355.18726	9.89556E-10
1355.31177	9.89635E-10
1355.43616	9.89716E-10
1355.56067	9.89797E-10
1355.68518	9.89880E-10
1355.80957	9.89963E-10
1355.93408	9.90048E-10
1356.05847	9.90134E-10
1356.18298	9.90222E-10
1356.30737	9.90310E-10
1356.43189	9.90400E-10
1356.55627	9.90492E-10
1356.68079	9.90586E-10
1356.80518	9.90681E-10
1356.92969	9.90777E-10
1357.05408	9.90875E-10
1357.17859	9.90975E-10
1357.30298	9.91077E-10
1357.42749	9.91180E-10
1357.55200	9.91284E-10
1357.67639	9.91390E-10
1357.80090	9.91498E-10
1357.92529	9.91607E-10
1358.04981	9.91718E-10
1358.17419	9.91832E-10
1358.29871	9.91946E-10
1358.42310	9.92062E-10
1358.54761	9.92179E-10
1358.67200	9.92297E-10
1358.79651	9.92418E-10
1358.92090	9.92540E-10
1359.04541	9.92663E-10
1359.16980	9.92787E-10
1359.29431	9.92913E-10
1359.41882	9.93040E-10
1359.54321	9.93168E-10
1359.66773	9.93297E-10
1359.79211	9.93426E-10
1359.91663	9.93558E-10
1360.04102	9.93689E-10
1360.16553	9.93820E-10
1360.28992	9.93953E-10
1360.41443	9.94085E-10
1360.53882	9.94219E-10
1360.66333	9.94352E-10
1360.78772	9.94485E-10
1360.91223	9.94618E-10
1361.03662	9.94752E-10
1361.16113	9.94884E-10
1361.28565	9.95016E-10
1361.41003	9.95147E-10
1361.53455	9.95277E-10
1361.65894	9.95406E-10
1361.78345	9.95535E-10
1361.90784	9.95663E-10
1362.03235	9.95790E-10
1362.15674	9.95914E-10
1362.28125	9.96037E-10
1362.40564	9.96160E-10
1362.53015	9.96279E-10
1362.65454	9.96396E-10
1362.77905	9.96512E-10
1362.90344	9.96624E-10
1363.02795	9.96734E-10
1363.15234	9.96842E-10
1363.27686	9.96947E-10
1363.40137	9.97050E-10
1363.52576	9.97148E-10
1363.65027	9.97244E-10
1363.77466	9.97337E-10
1363.89917	9.97426E-10
1364.02356	9.97511E-10
1364.14807	9.97594E-10
1364.27246	9.97672E-10
1364.39697	9.97746E-10
1364.52136	9.97816E-10
1364.64587	9.97882E-10
1364.77026	9.97945E-10
1364.89478	9.98002E-10
1365.01917	9.98056E-10
1365.14368	9.98105E-10
1365.26819	9.98150E-10
1365.39258	9.98190E-10
1365.51709	9.98227E-10
1365.64148	9.98257E-10
1365.76599	9.98285E-10
1365.89038	9.98306E-10
1366.01489	9.98324E-10
1366.13928	9.98337E-10
1366.26379	9.98345E-10
1366.38818	9.98349E-10
1366.51270	9.98348E-10
1366.63709	9.98343E-10
1366.76160	9.98334E-10
1366.88599	9.98320E-10
1367.01050	9.98302E-10
1367.13501	9.98280E-10
1367.25940	9.98253E-10
1367.38391	9.98223E-10
1367.50830	9.98189E-10
1367.63281	9.98152E-10
1367.75720	9.98110E-10
1367.88171	9.98066E-10
1368.00610	9.98017E-10
1368.13062	9.97965E-10
1368.25501	9.97911E-10
1368.37952	9.97854E-10
1368.50391	9.97794E-10
1368.62842	9.97731E-10
1368.75281	9.97666E-10
1368.87732	9.97598E-10
1369.00183	9.97530E-10
1369.12622	9.97459E-10
1369.25073	9.97387E-10
1369.37512	9.97314E-10
1369.49963	9.97239E-10
1369.62402	9.97165E-10
1369.74854	9.97090E-10
1369.87293	9.97014E-10
1369.99744	9.96938E-10
1370.12183	9.96862E-10
1370.24634	9.96787E-10
1370.37073	9.96713E-10
1370.49524	9.96641E-10
1370.61963	9.96570E-10
1370.74414	9.96500E-10
1370.86865	9.96433E-10
1370.99304	9.96367E-10
1371.11755	9.96304E-10
1371.24194	9.96244E-10
1371.36646	9.96188E-10
1371.49085	9.96134E-10
1371.61536	9.96084E-10
1371.73975	9.96038E-10
1371.86426	9.95995E-10
1371.98865	9.95958E-10
1372.11316	9.95924E-10
1372.23755	9.95896E-10
1372.36206	9.95873E-10
1372.48645	9.95855E-10
1372.61096	9.95843E-10
1372.73547	9.95837E-10
1372.85986	9.95838E-10
1372.98438	9.95844E-10
1373.10877	9.95857E-10
1373.23328	9.95877E-10
1373.35767	9.95903E-10
1373.48218	9.95937E-10
1373.60657	9.95977E-10
1373.73108	9.96026E-10
1373.85547	9.96081E-10
1373.97998	9.96146E-10
1374.10437	9.96218E-10
1374.22888	9.96297E-10
1374.35327	9.96385E-10
1374.47778	9.96480E-10
1374.60230	9.96584E-10
1374.72669	9.96697E-10
1374.85120	9.96817E-10
1374.97559	9.96946E-10
1375.10010	9.97084E-10
1375.22449	9.97229E-10
1375.34900	9.97383E-10
1375.47339	9.97545E-10
1375.59790	9.97716E-10
1375.72229	9.97894E-10
1375.84680	9.98082E-10
1375.97119	9.98278E-10
1376.09570	9.98481E-10
1376.22009	9.98693E-10
1376.34460	9.98912E-10
1376.46912	9.99140E-10
1376.59351	9.99374E-10
1376.71802	9.99616E-10
1376.84241	9.99866E-10
1376.96692	1.00012E-09
1377.09131	1.00039E-09
1377.21582	1.00066E-09
1377.34021	1.00093E-09
1377.46472	1.00122E-09
1377.58911	1.00150E-09
1377.71362	1.00180E-09
1377.83801	1.00210E-09
1377.96252	1.00240E-09
1378.08691	1.00271E-09
1378.21143	1.00302E-09
1378.33594	1.00334E-09
1378.46033	1.00366E-09
1378.58484	1.00399E-09
1378.70923	1.00431E-09
1378.83374	1.00464E-09
1378.95813	1.00498E-09
1379.08264	1.00531E-09
1379.20703	1.00565E-09
1379.33154	1.00598E-09
1379.45593	1.00632E-09
1379.58044	1.00666E-09
1379.70483	1.00700E-09
1379.82935	1.00734E-09
1379.95374	1.00767E-09
1380.07825	1.00801E-09
1380.20276	1.00834E-09
1380.32715	1.00867E-09
1380.45166	1.00900E-09
1380.57605	1.00933E-09
1380.70056	1.00965E-09
1380.82495	1.00997E-09
1380.94946	1.01028E-09
1381.07385	1.01059E-09
1381.19836	1.01090E-09
1381.32275	1.01120E-09
1381.44727	1.01149E-09
1381.57166	1.01178E-09
1381.69617	1.01206E-09
1381.82056	1.01233E-09
1381.94507	1.01260E-09
1382.06958	1.01286E-09
1382.19397	1.01311E-09
1382.31848	1.01335E-09
1382.44287	1.01358E-09
1382.56738	1.01380E-09
1382.69177	1.01402E-09
1382.81628	1.01422E-09
1382.94067	1.01442E-09
1383.06519	1.01460E-09
1383.18958	1.01478E-09
1383.31409	1.01494E-09
1383.43848	1.01510E-09
1383.56299	1.01524E-09
1383.68738	1.01537E-09
1383.81189	1.01549E-09
1383.93640	1.01560E-09
1384.06079	1.01570E-09
1384.18530	1.01579E-09
1384.30969	1.01587E-09
1384.43420	1.01593E-09
1384.55859	1.01598E-09
1384.68311	1.01602E-09
1384.80750	1.01605E-09
1384.93201	1.01607E-09
1385.05640	1.01608E-09
1385.18091	1.01607E-09
1385.30530	1.01605E-09
1385.42981	1.01603E-09
1385.55420	1.01599E-09
1385.67871	1.01594E-09
1385.80310	1.01587E-09
1385.92761	1.01580E-09
1386.05212	1.01572E-09
1386.17651	1.01563E-09
1386.30103	1.01553E-09
1386.42542	1.01542E-09
1386.54993	1.01530E-09
1386.67432	1.01517E-09
1386.79883	1.01503E-09
1386.92322	1.01488E-09
1387.04773	1.01472E-09
1387.17212	1.01456E-09
1387.29663	1.01439E-09
1387.42102	1.01421E-09
1387.54553	1.01403E-09
1387.66992	1.01384E-09
1387.79443	1.01364E-09
1387.91895	1.01344E-09
1388.04334	1.01323E-09
1388.16785	1.01301E-09
1388.29224	1.01280E-09
1388.41675	1.01258E-09
1388.54114	1.01235E-09
1388.66565	1.01213E-09
1388.79004	1.01190E-09
1388.91455	1.01167E-09
1389.03894	1.01143E-09
1389.16345	1.01120E-09
1389.28784	1.01096E-09
1389.41235	1.01073E-09
1389.53674	1.01049E-09
1389.66126	1.01026E-09
1389.78577	1.01003E-09
1389.91016	1.00979E-09
1390.03467	1.00956E-09
1390.15906	1.00934E-09
1390.28357	1.00911E-09
1390.40796	1.00889E-09
1390.53247	1.00867E-09
1390.65686	1.00846E-09
1390.78137	1.00824E-09
1390.90576	1.00804E-09
1391.03027	1.00784E-09
1391.15466	1.00764E-09
1391.27918	1.00745E-09
1391.40356	1.00727E-09
1391.52808	1.00709E-09
1391.65259	1.00692E-09
1391.77698	1.00676E-09
1391.90149	1.00660E-09
1392.02588	1.00645E-09
1392.15039	1.00631E-09
1392.27478	1.00618E-09
1392.39929	1.00605E-09
1392.52368	1.00594E-09
1392.64819	1.00583E-09
1392.77258	1.00573E-09
1392.89710	1.00564E-09
1393.02148	1.00555E-09
1393.14600	1.00548E-09
1393.27039	1.00542E-09
1393.39490	1.00536E-09
1393.51941	1.00532E-09
1393.64380	1.00528E-09
1393.76831	1.00525E-09
1393.89270	1.00523E-09
1394.01721	1.00523E-09
1394.14160	1.00523E-09
1394.26611	1.00524E-09
1394.39050	1.00526E-09
1394.51502	1.00529E-09
1394.63940	1.00532E-09
1394.76392	1.00537E-09
1394.88831	1.00542E-09
1395.01282	1.00549E-09
1395.13721	1.00556E-09
1395.26172	1.00564E-09
1395.38623	1.00573E-09
1395.51062	1.00582E-09
1395.63513	1.00593E-09
1395.75952	1.00604E-09
1395.88403	1.00616E-09
1396.00842	1.00628E-09
1396.13294	1.00641E-09
1396.25732	1.00655E-09
1396.38184	1.00670E-09
1396.50623	1.00685E-09
1396.63074	1.00700E-09
1396.75513	1.00716E-09
1396.87964	1.00733E-09
1397.00403	1.00750E-09
1397.12854	1.00767E-09
1397.25305	1.00785E-09
1397.37744	1.00803E-09
1397.50195	1.00821E-09
1397.62634	1.00840E-09
1397.75085	1.00859E-09
1397.87524	1.00878E-09
1397.99976	1.00897E-09
1398.12415	1.00917E-09
1398.24866	1.00936E-09
1398.37305	1.00956E-09
1398.49756	1.00976E-09
1398.62195	1.00995E-09
1398.74646	1.01015E-09
1398.87085	1.01034E-09
1398.99536	1.01053E-09
1399.11987	1.01072E-09
1399.24426	1.01091E-09
1399.36877	1.01110E-09
1399.49316	1.01128E-09
1399.61768	1.01147E-09
1399.74207	1.01164E-09
1399.86658	1.01182E-09
1399.99097	1.01199E-09
1400.11548	1.01216E-09
1400.23987	1.01232E-09
1400.36438	1.01247E-09
1400.48877	1.01263E-09
1400.61328	1.01277E-09
1400.73767	1.01292E-09
1400.86218	1.01305E-09
1400.98669	1.01318E-09
1401.11108	1.01330E-09
1401.23560	1.01342E-09
1401.35999	1.01353E-09
1401.48450	1.01364E-09
1401.60889	1.01374E-09
1401.73340	1.01383E-09
1401.85779	1.01391E-09
1401.98230	1.01399E-09
1402.10669	1.01406E-09
1402.23120	1.01412E-09
1402.35559	1.01418E-09
1402.48010	1.01423E-09
1402.60449	1.01428E-09
1402.72900	1.01431E-09
1402.85352	1.01434E-09
1402.97791	1.01436E-09
1403.10242	1.01438E-09
1403.22681	1.01438E-09
1403.35132	1.01438E-09
1403.47571	1.01438E-09
1403.60022	1.01437E-09
1403.72461	1.01435E-09
1403.84912	1.01433E-09
1403.97351	1.01430E-09
1404.09802	1.01426E-09
1404.22241	1.01422E-09
1404.34692	1.01417E-09
1404.47131	1.01412E-09
1404.59583	1.01406E-09
1404.72034	1.01400E-09
1404.84473	1.01393E-09
1404.96924	1.01386E-09
1405.09363	1.01379E-09
1405.21814	1.01371E-09
1405.34253	1.01363E-09
1405.46704	1.01354E-09
1405.59143	1.01345E-09
1405.71594	1.01337E-09
1405.84033	1.01327E-09
1405.96484	1.01318E-09
1406.08923	1.01308E-09
1406.21375	1.01299E-09
1406.33814	1.01289E-09
1406.46265	1.01279E-09
1406.58716	1.01269E-09
1406.71155	1.01259E-09
1406.83606	1.01249E-09
1406.96045	1.01239E-09
1407.08496	1.01230E-09
1407.20935	1.01220E-09
1407.33386	1.01211E-09
1407.45825	1.01201E-09
1407.58276	1.01192E-09
1407.70715	1.01183E-09
1407.83167	1.01175E-09
1407.95606	1.01166E-09
1408.08057	1.01159E-09
1408.20496	1.01151E-09
1408.32947	1.01144E-09
1408.45386	1.01137E-09
1408.57837	1.01130E-09
1408.70288	1.01124E-09
1408.82727	1.01119E-09
1408.95178	1.01114E-09
1409.07617	1.01109E-09
1409.20068	1.01105E-09
1409.32507	1.01102E-09
1409.44959	1.01099E-09
1409.57398	1.01096E-09
1409.69849	1.01095E-09
1409.82288	1.01093E-09
1409.94739	1.01093E-09
1410.07178	1.01093E-09
1410.19629	1.01093E-09
1410.32068	1.01094E-09
1410.44519	1.01096E-09
1410.56970	1.01099E-09
1410.69409	1.01102E-09
1410.81860	1.01106E-09
1410.94299	1.01110E-09
1411.06751	1.01115E-09
1411.19190	1.01121E-09
1411.31641	1.01127E-09
1411.44080	1.01134E-09
1411.56531	1.01141E-09
1411.68970	1.01149E-09
1411.81421	1.01158E-09
1411.93860	1.01167E-09
1412.06311	1.01177E-09
1412.18750	1.01188E-09
1412.31201	1.01199E-09
1412.43652	1.01210E-09
1412.56091	1.01222E-09
1412.68543	1.01235E-09
1412.80981	1.01248E-09
1412.93433	1.01262E-09
1413.05872	1.01276E-09
1413.18323	1.01290E-09
1413.30762	1.01305E-09
1413.43213	1.01320E-09
1413.55652	1.01336E-09
1413.68103	1.01352E-09
1413.80542	1.01368E-09
1413.92993	1.01384E-09
1414.05432	1.01401E-09
1414.17883	1.01418E-09
1414.30335	1.01435E-09
1414.42773	1.01453E-09
1414.55225	1.01470E-09
1414.67664	1.01488E-09
1414.80115	1.01506E-09
1414.92554	1.01524E-09
1415.05005	1.01542E-09
1415.17444	1.01560E-09
1415.29895	1.01578E-09
1415.42334	1.01596E-09
1415.54785	1.01614E-09
1415.67224	1.01632E-09
1415.79675	1.01650E-09
1415.92114	1.01668E-09
1416.04565	1.01686E-09
1416.17017	1.01703E-09
1416.29456	1.01720E-09
1416.41907	1.01737E-09
1416.54346	1.01754E-09
1416.66797	1.01771E-09
1416.79236	1.01787E-09
1416.91687	1.01803E-09
1417.04126	1.01819E-09
1417.16577	1.01834E-09
1417.29016	1.01849E-09
1417.41467	1.01864E-09
1417.53906	1.01878E-09
1417.66357	1.01892E-09
1417.78796	1.01905E-09
1417.91248	1.01918E-09
1418.03699	1.01931E-09
1418.16138	1.01943E-09
1418.28589	1.01955E-09
1418.41028	1.01966E-09
1418.53479	1.01977E-09
1418.65918	1.01987E-09
1418.78369	1.01997E-09
1418.90808	1.02007E-09
1419.03259	1.02016E-09
1419.15698	1.02024E-09
1419.28149	1.02032E-09
1419.40588	1.02039E-09
1419.53040	1.02046E-09
1419.65479	1.02053E-09
1419.77930	1.02059E-09
1419.90381	1.02065E-09
1420.02820	1.02070E-09
1420.15271	1.02075E-09
1420.27710	1.02080E-09
1420.40161	1.02084E-09
1420.52600	1.02087E-09
1420.65051	1.02091E-09
1420.77490	1.02094E-09
1420.89941	1.02096E-09
1421.02380	1.02098E-09
1421.14832	1.02100E-09
1421.27271	1.02102E-09
1421.39722	1.02103E-09
1421.52161	1.02104E-09
1421.64612	1.02105E-09
1421.77063	1.02106E-09
1421.89502	1.02106E-09
1422.01953	1.02106E-09
1422.14392	1.02106E-09
1422.26843	1.02106E-09
1422.39282	1.02106E-09
1422.51733	1.02106E-09
1422.64172	1.02105E-09
1422.76624	1.02105E-09
1422.89063	1.02104E-09
1423.01514	1.02104E-09
1423.13953	1.02103E-09
1423.26404	1.02103E-09
1423.38843	1.02103E-09
1423.51294	1.02102E-09
1423.63745	1.02102E-09
1423.76184	1.02102E-09
1423.88635	1.02102E-09
1424.01074	1.02103E-09
1424.13525	1.02103E-09
1424.25964	1.02104E-09
1424.38416	1.02105E-09
1424.50855	1.02106E-09
1424.63306	1.02108E-09
1424.75745	1.02109E-09
1424.88196	1.02111E-09
1425.00635	1.02114E-09
1425.13086	1.02117E-09
1425.25525	1.02120E-09
1425.37976	1.02123E-09
1425.50427	1.02127E-09
1425.62866	1.02131E-09
1425.75317	1.02136E-09
1425.87756	1.02141E-09
1426.00208	1.02147E-09
1426.12647	1.02153E-09
1426.25098	1.02159E-09
1426.37537	1.02166E-09
1426.49988	1.02173E-09
1426.62427	1.02181E-09
1426.74878	1.02189E-09
1426.87317	1.02198E-09
1426.99768	1.02207E-09
1427.12207	1.02216E-09
1427.24658	1.02226E-09
1427.37109	1.02237E-09
1427.49548	1.02248E-09
1427.62000	1.02259E-09
1427.74439	1.02271E-09
1427.86890	1.02284E-09
1427.99329	1.02296E-09
1428.11780	1.02309E-09
1428.24219	1.02323E-09
1428.36670	1.02337E-09
1428.49109	1.02351E-09
1428.61560	1.02366E-09
1428.73999	1.02381E-09
1428.86450	1.02397E-09
1428.98889	1.02412E-09
1429.11340	1.02429E-09
1429.23792	1.02445E-09
1429.36231	1.02462E-09
1429.48682	1.02479E-09
1429.61121	1.02496E-09
1429.73572	1.02514E-09
1429.86011	1.02532E-09
1429.98462	1.02549E-09
1430.10901	1.02568E-09
1430.23352	1.02586E-09
1430.35791	1.02604E-09
1430.48242	1.02623E-09
1430.60681	1.02641E-09
1430.73132	1.02660E-09
1430.85571	1.02679E-09
1430.98023	1.02698E-09
1431.10461	1.02716E-09
1431.22913	1.02735E-09
1431.35364	1.02754E-09
1431.47803	1.02773E-09
1431.60254	1.02791E-09
1431.72693	1.02810E-09
1431.85144	1.02828E-09
1431.97583	1.02847E-09
1432.10034	1.02865E-09
1432.22473	1.02883E-09
1432.34924	1.02900E-09
1432.47363	1.02918E-09
1432.59815	1.02935E-09
1432.72253	1.02952E-09
1432.84705	1.02969E-09
1432.97144	1.02985E-09
1433.09595	1.03001E-09
1433.22046	1.03017E-09
1433.34485	1.03033E-09
1433.46936	1.03048E-09
1433.59375	1.03062E-09
1433.71826	1.03077E-09
1433.84265	1.03091E-09
1433.96716	1.03104E-09
1434.09155	1.03117E-09
1434.21606	1.03130E-09
1434.34045	1.03142E-09
1434.46497	1.03154E-09
1434.58936	1.03165E-09
1434.71387	1.03176E-09
1434.83826	1.03186E-09
1434.96277	1.03196E-09
1435.08728	1.03206E-09
1435.21167	1.03215E-09
1435.33618	1.03223E-09
1435.46057	1.03231E-09
1435.58508	1.03239E-09
1435.70947	1.03246E-09
1435.83398	1.03253E-09
1435.95837	1.03259E-09
1436.08289	1.03265E-09
1436.20728	1.03270E-09
1436.33179	1.03275E-09
1436.45618	1.03280E-09
1436.58069	1.03284E-09
1436.70508	1.03288E-09
1436.82959	1.03291E-09
1436.95410	1.03294E-09
1437.07849	1.03297E-09
1437.20300	1.03299E-09
1437.32739	1.03301E-09
1437.45190	1.03303E-09
1437.57629	1.03304E-09
1437.70081	1.03306E-09
1437.82520	1.03307E-09
1437.94971	1.03307E-09
1438.07410	1.03308E-09
1438.19861	1.03308E-09
1438.32300	1.03308E-09
1438.44751	1.03308E-09
1438.57190	1.03308E-09
1438.69641	1.03308E-09
1438.82092	1.03308E-09
1438.94531	1.03308E-09
1439.06982	1.03307E-09
1439.19421	1.03307E-09
1439.31873	1.03307E-09
1439.44312	1.03307E-09
1439.56763	1.03307E-09
1439.69202	1.03307E-09
1439.81653	1.03307E-09
1439.94092	1.03308E-09
1440.06543	1.03308E-09
1440.18982	1.03309E-09
1440.31433	1.03310E-09
1440.43872	1.03311E-09
1440.56323	1.03312E-09
1440.68774	1.03314E-09
1440.81213	1.03316E-09
1440.93665	1.03318E-09
1441.06104	1.03321E-09
1441.18555	1.03324E-09
1441.30994	1.03328E-09
1441.43445	1.03332E-09
1441.55884	1.03336E-09
1441.68335	1.03341E-09
1441.80774	1.03346E-09
1441.93225	1.03352E-09
1442.05664	1.03358E-09
1442.18115	1.03365E-09
1442.30554	1.03372E-09
1442.43005	1.03380E-09
1442.55457	1.03388E-09
1442.67896	1.03397E-09
1442.80347	1.03407E-09
1442.92786	1.03417E-09
1443.05237	1.03427E-09
1443.17676	1.03438E-09
1443.30127	1.03450E-09
1443.42566	1.03462E-09
1443.55017	1.03475E-09
1443.67456	1.03489E-09
1443.79907	1.03503E-09
1443.92346	1.03518E-09
1444.04797	1.03533E-09
1444.17236	1.03549E-09
1444.29688	1.03565E-09
1444.42139	1.03582E-09
1444.54578	1.03600E-09
1444.67029	1.03618E-09
1444.79468	1.03637E-09
1444.91919	1.03657E-09
1445.04358	1.03677E-09
1445.16809	1.03697E-09
1445.29248	1.03718E-09
1445.41699	1.03740E-09
1445.54138	1.03762E-09
1445.66589	1.03784E-09
1445.79028	1.03807E-09
1445.91480	1.03831E-09
1446.03919	1.03855E-09
1446.16370	1.03879E-09
1446.28821	1.03904E-09
1446.41260	1.03929E-09
1446.53711	1.03955E-09
1446.66150	1.03981E-09
1446.78601	1.04007E-09
1446.91040	1.04034E-09
1447.03491	1.04061E-09
1447.15930	1.04088E-09
1447.28381	1.04116E-09
1447.40820	1.04144E-09
1447.53272	1.04172E-09
1447.65710	1.04200E-09
1447.78162	1.04229E-09
1447.90601	1.04257E-09
1448.03052	1.04286E-09
1448.15503	1.04315E-09
1448.27942	1.04344E-09
1448.40393	1.04373E-09
1448.52832	1.04403E-09
1448.65283	1.04432E-09
1448.77722	1.04461E-09
1448.90173	1.04490E-09
1449.02612	1.04520E-09
1449.15064	1.04549E-09
1449.27502	1.04578E-09
1449.39954	1.04607E-09
1449.52393	1.04636E-09
1449.64844	1.04665E-09
1449.77283	1.04694E-09
1449.89734	1.04723E-09
1450.02185	1.04751E-09
1450.14624	1.04779E-09
1450.27075	1.04807E-09
1450.39514	1.04835E-09
1450.51965	1.04863E-09
1450.64404	1.04890E-09
1450.76856	1.04917E-09
1450.89294	1.04944E-09
1451.01746	1.04971E-09
1451.14185	1.04997E-09
1451.26636	1.05023E-09
1451.39075	1.05049E-09
1451.51526	1.05074E-09
1451.63965	1.05099E-09
1451.76416	1.05124E-09
1451.88855	1.05148E-09
1452.01306	1.05172E-09
1452.13757	1.05196E-09
1452.26196	1.05219E-09
1452.38648	1.05242E-09
1452.51086	1.05264E-09
1452.63538	1.05287E-09
1452.75977	1.05309E-09
1452.88428	1.05330E-09
1453.00867	1.05351E-09
1453.13318	1.05372E-09
1453.25757	1.05392E-09
1453.38208	1.05412E-09
1453.50647	1.05432E-09
1453.63098	1.05452E-09
1453.75537	1.05471E-09
1453.87988	1.05490E-09
1454.00440	1.05508E-09
1454.12878	1.05526E-09
1454.25330	1.05544E-09
1454.37769	1.05562E-09
1454.50220	1.05579E-09
1454.62659	1.05597E-09
1454.75110	1.05614E-09
1454.87549	1.05630E-09
1455.00000	1.05647E-09
1455.12439	1.05663E-09
1455.24890	1.05679E-09
1455.37329	1.05696E-09
1455.49780	1.05712E-09
1455.62219	1.05727E-09
1455.74670	1.05743E-09
1455.87122	1.05759E-09
1455.99561	1.05774E-09
1456.12012	1.05790E-09
1456.24451	1.05806E-09
1456.36902	1.05821E-09
1456.49341	1.05837E-09
1456.61792	1.05853E-09
1456.74231	1.05868E-09
1456.86682	1.05884E-09
1456.99121	1.05900E-09
1457.11572	1.05916E-09
1457.24011	1.05932E-09
1457.36462	1.05949E-09
1457.48901	1.05965E-09
1457.61353	1.05982E-09
1457.73804	1.05999E-09
1457.86243	1.06016E-09
1457.98694	1.06033E-09
1458.11133	1.06051E-09
1458.23584	1.06069E-09
1458.36023	1.06087E-09
1458.48474	1.06106E-09
1458.60913	1.06124E-09
1458.73364	1.06143E-09
1458.85803	1.06163E-09
1458.98254	1.06183E-09
1459.10693	1.06203E-09
1459.23145	1.06224E-09
1459.35584	1.06244E-09
1459.48035	1.06266E-09
1459.60486	1.06287E-09
1459.72925	1.06310E-09
1459.85376	1.06332E-09
1459.97815	1.06355E-09
1460.10266	1.06378E-09
1460.22705	1.06402E-09
1460.35156	1.06426E-09
1460.47595	1.06451E-09
1460.60046	1.06476E-09
1460.72485	1.06501E-09
1460.84937	1.06527E-09
1460.97376	1.06553E-09
1461.09827	1.06579E-09
1461.22266	1.06606E-09
1461.34717	1.06634E-09
1461.47168	1.06661E-09
1461.59607	1.06689E-09
1461.72058	1.06718E-09
1461.84497	1.06747E-09
1461.96948	1.06776E-09
1462.09387	1.06805E-09
1462.21838	1.06835E-09
1462.34277	1.06865E-09
1462.46729	1.06896E-09
1462.59168	1.06927E-09
1462.71619	1.06958E-09
1462.84058	1.06989E-09
1462.96509	1.07021E-09
1463.08948	1.07052E-09
1463.21399	1.07084E-09
1463.33850	1.07117E-09
1463.46289	1.07149E-09
1463.58740	1.07182E-09
1463.71179	1.07214E-09
1463.83630	1.07247E-09
1463.96069	1.07280E-09
1464.08521	1.07313E-09
1464.20960	1.07346E-09
1464.33411	1.07379E-09
1464.45850	1.07412E-09
1464.58301	1.07445E-09
1464.70740	1.07478E-09
1464.83191	1.07511E-09
1464.95630	1.07544E-09
1465.08081	1.07577E-09
1465.20532	1.07610E-09
1465.32971	1.07643E-09
1465.45422	1.07676E-09
1465.57861	1.07708E-09
1465.70313	1.07740E-09
1465.82752	1.07772E-09
1465.95203	1.07804E-09
1466.07642	1.07835E-09
1466.20093	1.07867E-09
1466.32532	1.07898E-09
1466.44983	1.07928E-09
1466.57422	1.07958E-09
1466.69873	1.07988E-09
1466.82312	1.08018E-09
1466.94763	1.08047E-09
1467.07214	1.08076E-09
1467.19653	1.08104E-09
1467.32105	1.08132E-09
1467.44544	1.08159E-09
1467.56995	1.08186E-09
1467.69434	1.08213E-09
1467.81885	1.08239E-09
1467.94324	1.08264E-09
1468.06775	1.08289E-09
1468.19214	1.08313E-09
1468.31665	1.08337E-09
1468.44104	1.08360E-09
1468.56555	1.08383E-09
1468.68994	1.08405E-09
1468.81445	1.08427E-09
1468.93897	1.08448E-09
1469.06335	1.08468E-09
1469.18787	1.08488E-09
1469.31226	1.08507E-09
1469.43677	1.08525E-09
1469.56116	1.08543E-09
1469.68567	1.08561E-09
1469.81006	1.08577E-09
1469.93457	1.08593E-09
1470.05896	1.08609E-09
1470.18347	1.08624E-09
1470.30786	1.08638E-09
1470.43237	1.08652E-09
1470.55676	1.08665E-09
1470.68127	1.08677E-09
1470.80579	1.08689E-09
1470.93018	1.08701E-09
1471.05469	1.08712E-09
1471.17908	1.08722E-09
1471.30359	1.08732E-09
1471.42798	1.08742E-09
1471.55249	1.08751E-09
1471.67688	1.08759E-09
1471.80139	1.08767E-09
1471.92578	1.08775E-09
1472.05029	1.08783E-09
1472.17468	1.08789E-09
1472.29919	1.08796E-09
1472.42358	1.08803E-09
1472.54810	1.08809E-09
1472.67261	1.08814E-09
1472.79700	1.08820E-09
1472.92151	1.08825E-09
1473.04590	1.08830E-09
1473.17041	1.08835E-09
1473.29480	1.08840E-09
1473.41931	1.08845E-09
1473.54370	1.08849E-09
1473.66821	1.08854E-09
1473.79260	1.08859E-09
1473.91711	1.08863E-09
1474.04150	1.08868E-09
1474.16602	1.08873E-09
1474.29041	1.08877E-09
1474.41492	1.08882E-09
1474.53931	1.08887E-09
1474.66382	1.08893E-09
1474.78833	1.08898E-09
1474.91272	1.08904E-09
1475.03723	1.08910E-09
1475.16162	1.08916E-09
1475.28613	1.08923E-09
1475.41052	1.08930E-09
1475.53503	1.08937E-09
1475.65942	1.08945E-09
1475.78394	1.08953E-09
1475.90833	1.08962E-09
1476.03284	1.08971E-09
1476.15723	1.08981E-09
1476.28174	1.08991E-09
1476.40613	1.09002E-09
1476.53064	1.09013E-09
1476.65515	1.09025E-09
1476.77954	1.09038E-09
1476.90405	1.09051E-09
1477.02844	1.09065E-09
1477.15295	1.09080E-09
1477.27734	1.09096E-09
1477.40186	1.09112E-09
1477.52625	1.09129E-09
1477.65076	1.09147E-09
1477.77515	1.09166E-09
1477.89966	1.09185E-09
1478.02405	1.09206E-09
1478.14856	1.09227E-09
1478.27295	1.09249E-09
1478.39746	1.09272E-09
1478.52197	1.09296E-09
1478.64636	1.09321E-09
1478.77087	1.09346E-09
1478.89526	1.09373E-09
1479.01978	1.09401E-09
1479.14417	1.09429E-09
1479.26868	1.09459E-09
1479.39307	1.09490E-09
1479.51758	1.09521E-09
1479.64197	1.09554E-09
1479.76648	1.09587E-09
1479.89087	1.09622E-09
1480.01538	1.09657E-09
1480.13977	1.09694E-09
1480.26428	1.09731E-09
1480.38879	1.09770E-09
1480.51318	1.09810E-09
1480.63770	1.09850E-09
1480.76209	1.09892E-09
1480.88660	1.09934E-09
1481.01099	1.09978E-09
1481.13550	1.10023E-09
1481.25989	1.10068E-09
1481.38440	1.10115E-09
1481.50879	1.10162E-09
1481.63330	1.10211E-09
1481.75769	1.10260E-09
1481.88220	1.10311E-09
1482.00659	1.10362E-09
1482.13110	1.10414E-09
1482.25562	1.10467E-09
1482.38001	1.10521E-09
1482.50452	1.10576E-09
1482.62891	1.10633E-09
1482.75342	1.10690E-09
1482.87781	1.10747E-09
1483.00232	1.10806E-09
1483.12671	1.10865E-09
1483.25122	1.10926E-09
1483.37561	1.10987E-09
1483.50012	1.11048E-09
1483.62451	1.11111E-09
1483.74902	1.11174E-09
1483.87341	1.11238E-09
1483.99793	1.11302E-09
1484.12244	1.11367E-09
1484.24683	1.11433E-09
1484.37134	1.11499E-09
1484.49573	1.11566E-09
1484.62024	1.11633E-09
1484.74463	1.11701E-09
1484.86914	1.11770E-09
1484.99353	1.11839E-09
1485.11804	1.11908E-09
1485.24243	1.11978E-09
1485.36694	1.12048E-09
1485.49133	1.12119E-09
1485.61585	1.12190E-09
1485.74023	1.12261E-09
1485.86475	1.12332E-09
1485.98926	1.12404E-09
1486.11365	1.12476E-09
1486.23816	1.12549E-09
1486.36255	1.12622E-09
1486.48706	1.12694E-09
1486.61145	1.12767E-09
1486.73596	1.12840E-09
1486.86035	1.12914E-09
1486.98486	1.12987E-09
1487.10925	1.13061E-09
1487.23377	1.13134E-09
1487.35815	1.13208E-09
1487.48267	1.13282E-09
1487.60706	1.13356E-09
1487.73157	1.13430E-09
1487.85608	1.13504E-09
1487.98047	1.13578E-09
1488.10498	1.13652E-09
1488.22937	1.13726E-09
1488.35388	1.13800E-09
1488.47827	1.13874E-09
1488.60278	1.13948E-09
1488.72717	1.14022E-09
1488.85169	1.14097E-09
1488.97607	1.14171E-09
1489.10059	1.14245E-09
1489.22498	1.14319E-09
1489.34949	1.14394E-09
1489.47388	1.14468E-09
1489.59839	1.14542E-09
1489.72290	1.14616E-09
1489.84729	1.14691E-09
1489.97180	1.14765E-09
1490.09619	1.14840E-09
1490.22070	1.14914E-09
1490.34509	1.14989E-09
1490.46960	1.15064E-09
1490.59399	1.15139E-09
1490.71851	1.15214E-09
1490.84290	1.15289E-09
1490.96741	1.15365E-09
1491.09180	1.15441E-09
1491.21631	1.15516E-09
1491.34070	1.15592E-09
1491.46521	1.15669E-09
1491.58972	1.15745E-09
1491.71411	1.15822E-09
1491.83862	1.15899E-09
1491.96301	1.15977E-09
1492.08752	1.16055E-09
1492.21191	1.16133E-09
1492.33643	1.16212E-09
1492.46082	1.16291E-09
1492.58533	1.16370E-09
1492.70972	1.16450E-09
1492.83423	1.16531E-09
1492.95862	1.16612E-09
1493.08313	1.16693E-09
1493.20752	1.16775E-09
1493.33203	1.16858E-09
1493.45654	1.16941E-09
1493.58093	1.17025E-09
1493.70544	1.17110E-09
1493.82983	1.17195E-09
1493.95435	1.17281E-09
1494.07874	1.17368E-09
1494.20325	1.17456E-09
1494.32764	1.17544E-09
1494.45215	1.17633E-09
1494.57654	1.17724E-09
1494.70105	1.17815E-09
1494.82544	1.17906E-09
1494.94995	1.17999E-09
1495.07434	1.18093E-09
1495.19885	1.18188E-09
1495.32336	1.18283E-09
1495.44775	1.18380E-09
1495.57227	1.18478E-09
1495.69666	1.18577E-09
1495.82117	1.18677E-09
1495.94556	1.18778E-09
1496.07007	1.18880E-09
1496.19446	1.18983E-09
1496.31897	1.19088E-09
1496.44336	1.19193E-09
1496.56787	1.19300E-09
1496.69226	1.19409E-09
1496.81677	1.19518E-09
1496.94116	1.19629E-09
1497.06567	1.19741E-09
1497.19006	1.19854E-09
1497.31458	1.19968E-09
1497.43909	1.20084E-09
1497.56348	1.20202E-09
1497.68799	1.20320E-09
1497.81238	1.20440E-09
1497.93689	1.20561E-09
1498.06128	1.20684E-09
1498.18579	1.20808E-09
1498.31018	1.20934E-09
1498.43469	1.21061E-09
1498.55908	1.21189E-09
1498.68359	1.21319E-09
1498.80798	1.21450E-09
1498.93250	1.21582E-09
1499.05689	1.21716E-09
1499.18140	1.21851E-09
1499.30591	1.21988E-09
1499.43030	1.22126E-09
1499.55481	1.22266E-09
1499.67920	1.22406E-09
1499.80371	1.22549E-09
1499.92810	1.22692E-09
1500.05261	1.22837E-09
1500.17700	1.22983E-09
1500.30151	1.23131E-09
1500.42590	1.23280E-09
1500.55042	1.23430E-09
1500.67481	1.23582E-09
1500.79932	1.23735E-09
1500.92371	1.23889E-09
1501.04822	1.24044E-09
1501.17273	1.24201E-09
1501.29712	1.24359E-09
1501.42163	1.24518E-09
1501.54602	1.24678E-09
1501.67053	1.24840E-09
1501.79492	1.25002E-09
1501.91943	1.25166E-09
1502.04382	1.25331E-09
1502.16834	1.25497E-09
1502.29273	1.25664E-09
1502.41724	1.25832E-09
1502.54163	1.26001E-09
1502.66614	1.26172E-09
1502.79053	1.26343E-09
1502.91504	1.26515E-09
1503.03955	1.26689E-09
1503.16394	1.26863E-09
1503.28845	1.27039E-09
1503.41284	1.27215E-09
1503.53735	1.27392E-09
1503.66174	1.27570E-09
1503.78626	1.27750E-09
1503.91065	1.27930E-09
1504.03516	1.28111E-09
1504.15955	1.28293E-09
1504.28406	1.28476E-09
1504.40845	1.28660E-09
1504.53296	1.28845E-09
1504.65735	1.29031E-09
1504.78186	1.29218E-09
1504.90637	1.29405E-09
1505.03076	1.29594E-09
1505.15527	1.29784E-09
1505.27966	1.29975E-09
1505.40418	1.30166E-09
1505.52856	1.30359E-09
1505.65308	1.30553E-09
1505.77747	1.30748E-09
1505.90198	1.30944E-09
1506.02637	1.31141E-09
1506.15088	1.31340E-09
1506.27527	1.31539E-09
1506.39978	1.31740E-09
1506.52417	1.31942E-09
1506.64868	1.32145E-09
1506.77319	1.32350E-09
1506.89758	1.32556E-09
1507.02210	1.32763E-09
1507.14648	1.32972E-09
1507.27100	1.33183E-09
1507.39539	1.33395E-09
1507.51990	1.33608E-09
1507.64429	1.33824E-09
1507.76880	1.34040E-09
1507.89319	1.34259E-09
1508.01770	1.34479E-09
1508.14209	1.34702E-09
1508.26660	1.34926E-09
1508.39099	1.35152E-09
1508.51550	1.35380E-09
1508.64002	1.35611E-09
1508.76440	1.35844E-09
1508.88892	1.36078E-09
1509.01331	1.36316E-09
1509.13782	1.36555E-09
1509.26221	1.36797E-09
1509.38672	1.37042E-09
1509.51111	1.37289E-09
1509.63562	1.37538E-09
1509.76001	1.37791E-09
1509.88452	1.38047E-09
1510.00891	1.38305E-09
1510.13342	1.38566E-09
1510.25781	1.38830E-09
1510.38232	1.39098E-09
1510.50684	1.39369E-09
1510.63123	1.39643E-09
1510.75574	1.39921E-09
1510.88013	1.40202E-09
1511.00464	1.40487E-09
1511.12903	1.40775E-09
1511.25354	1.41067E-09
1511.37793	1.41363E-09
1511.50244	1.41663E-09
1511.62683	1.41967E-09
1511.75134	1.42275E-09
1511.87573	1.42588E-09
1512.00024	1.42904E-09
1512.12463	1.43225E-09
1512.24915	1.43551E-09
1512.37366	1.43881E-09
1512.49805	1.44216E-09
1512.62256	1.44555E-09
1512.74695	1.44900E-09
1512.87146	1.45250E-09
1512.99585	1.45604E-09
1513.12036	1.45964E-09
1513.24475	1.46329E-09
1513.36926	1.46699E-09
1513.49365	1.47075E-09
1513.61816	1.47457E-09
1513.74255	1.47844E-09
1513.86707	1.48237E-09
1513.99146	1.48636E-09
1514.11597	1.49041E-09
1514.24048	1.49452E-09
1514.36487	1.49869E-09
1514.48938	1.50293E-09
1514.61377	1.50723E-09
1514.73828	1.51159E-09
1514.86267	1.51602E-09
1514.98718	1.52052E-09
1515.11157	1.52509E-09
1515.23608	1.52973E-09
1515.36047	1.53444E-09
1515.48499	1.53922E-09
1515.60938	1.54408E-09
1515.73389	1.54901E-09
1515.85828	1.55402E-09
1515.98279	1.55911E-09
1516.10730	1.56427E-09
1516.23169	1.56952E-09
1516.35620	1.57485E-09
1516.48059	1.58026E-09
1516.60510	1.58576E-09
1516.72949	1.59134E-09
1516.85400	1.59701E-09
1516.97839	1.60278E-09
1517.10291	1.60863E-09
1517.22730	1.61458E-09
1517.35181	1.62063E-09
1517.47620	1.62677E-09
1517.60071	1.63302E-09
1517.72510	1.63937E-09
1517.84961	1.64583E-09
1517.97412	1.65240E-09
1518.09851	1.65907E-09
1518.22302	1.66586E-09
1518.34741	1.67277E-09
1518.47192	1.67981E-09
1518.59631	1.68696E-09
1518.72083	1.69425E-09
1518.84522	1.70167E-09
1518.96973	1.70922E-09
1519.09412	1.71692E-09
1519.21863	1.72477E-09
1519.34302	1.73276E-09
1519.46753	1.74091E-09
1519.59192	1.74923E-09
1519.71643	1.75772E-09
1519.84082	1.76638E-09
1519.96533	1.77523E-09
1520.08984	1.78427E-09
1520.21423	1.79350E-09
1520.33875	1.80295E-09
1520.46314	1.81261E-09
1520.58765	1.82249E-09
1520.71204	1.83261E-09
1520.83655	1.84298E-09
1520.96094	1.85360E-09
1521.08545	1.86450E-09
1521.20984	1.87568E-09
1521.33435	1.88716E-09
1521.45874	1.89896E-09
1521.58325	1.91108E-09
1521.70764	1.92355E-09
1521.83215	1.93638E-09
1521.95667	1.94959E-09
1522.08106	1.96321E-09
1522.20557	1.97726E-09
1522.32996	1.99176E-09
1522.45447	2.00672E-09
1522.57886	2.02220E-09
1522.70337	2.03821E-09
1522.82776	2.05478E-09
1522.95227	2.07194E-09
1523.07666	2.08974E-09
1523.20117	2.10821E-09
1523.32556	2.12740E-09
1523.45007	2.14734E-09
1523.57446	2.16809E-09
1523.69898	2.18970E-09
1523.82349	2.21222E-09
1523.94788	2.23572E-09
1524.07239	2.26027E-09
1524.19678	2.28593E-09
1524.32129	2.31279E-09
1524.44568	2.34093E-09
1524.57019	2.37045E-09
1524.69458	2.40145E-09
1524.81909	2.43404E-09
1524.94348	2.46836E-09
1525.06799	2.50452E-09
1525.19238	2.54269E-09
1525.31690	2.58304E-09
1525.44128	2.62574E-09
1525.56580	2.67101E-09
1525.69031	2.71908E-09
1525.81470	2.77021E-09
1525.93921	2.82468E-09
1526.06360	2.88281E-09
1526.18811	2.94498E-09
1526.31250	3.01161E-09
1526.43701	3.08317E-09
1526.56140	3.16022E-09
1526.68591	3.24336E-09
1526.81030	3.33335E-09
1526.93481	3.43101E-09
1527.05920	3.53738E-09
1527.18372	3.65363E-09
1527.30811	3.78120E-09
1527.43262	3.92182E-09
1527.55713	4.07767E-09
1527.68152	4.25148E-09
1527.80603	4.44675E-09
1527.93042	4.66809E-09
1528.05493	4.92179E-09
1528.17932	5.21659E-09
1528.30383	5.56507E-09
1528.42822	5.98608E-09
1528.55273	6.50843E-09
1528.67712	7.17747E-09
1528.80164	8.06349E-09
1528.92603	9.25877E-09
1529.05054	1.07477E-08
1529.17493	1.14709E-08